時間[s] x軸周り[deg] y軸周り[deg] z軸周り[deg]
0 0 0 0
0.02 0 0 0
0.07 350.7177 330.995 352.4305
0.1152638 350.7072 331.0013 352.4207
0.1284781 350.7092 330.9912 352.4307
0.1405552 350.7101 331.0051 352.4286
0.1524611 350.7112 330.9936 352.4347
0.1641385 350.7066 331.0128 352.4263
0.1756033 350.6939 331.0011 352.4295
0.1873638 350.7091 331.0078 352.419
0.198498 350.701 330.9861 352.4401
0.2093718 350.7091 331.007 352.4262
0.2207495 350.7017 331.0085 352.4292
0.2316855 350.6969 331.0054 352.4297
0.2422535 350.6969 331.0024 352.4234
0.2531235 350.6996 331.0047 352.4312
0.2639703 350.7103 331.0108 352.4321
0.275195 350.7085 331.0202 352.4231
0.2862694 350.7007 331.0064 352.4199
0.2978381 350.7098 331.0172 352.4151
0.3086403 350.7069 331.0203 352.4195
0.319726 350.6926 331.0168 352.4077
0.330618 350.7021 331.0174 352.4253
0.3413092 350.7101 331.007 352.4182
0.3522144 350.7189 331.0099 352.4136
0.3635829 350.7102 331.0005 352.4171
0.3781464 350.7052 331.0211 352.4176
0.3888589 350.7075 331.0146 352.4156
0.405095 350.7096 331.0163 352.416
0.4159171 350.6977 331.0143 352.4105
0.4264305 350.7073 331.0139 352.4064
0.4371547 350.7155 331.0323 352.4008
0.4483894 350.7059 331.0231 352.4081
0.4592966 350.7147 331.0244 352.4063
0.47004 350.6983 331.0234 352.4019
0.4813592 350.7025 331.028 352.4138
0.492335 350.7112 331.0272 352.4011
0.5034886 350.7054 331.0331 352.4151
0.5156216 350.7037 331.0269 352.3979
0.5273649 350.7085 331.0128 352.4107
0.5393917 350.7138 331.0215 352.4059
0.5517962 350.7038 331.0317 352.4173
0.5639926 350.7128 331.0274 352.4097
0.5746686 350.7173 331.0151 352.4129
0.5860698 350.7013 331.0122 352.4178
0.5966047 350.7102 331.0098 352.4055
0.6078692 350.7132 331.0264 352.4185
0.6189802 350.7144 331.0249 352.4011
0.6298544 350.7173 331.0264 352.4045
0.6405875 350.7063 331.0176 352.4163
0.6512916 350.7159 331.0217 352.401
0.6622253 350.7159 331.0293 352.4051
0.6728209 350.7155 331.0335 352.4059
0.6836699 350.7175 331.0362 352.4113
0.6942419 350.7095 331.0386 352.4099
0.7048694 350.7092 331.0252 352.4129
0.7156415 350.7196 331.0367 352.4055
0.7271375 350.7112 331.0267 352.4082
0.7377253 350.7294 331.0319 352.4097
0.7485441 350.7027 331.0406 352.3993
0.7590877 350.7199 331.0206 352.4053
0.7741763 350.7057 331.0256 352.4129
0.785555 350.713 331.0267 352.4174
0.7961932 350.7008 331.0171 352.4012
0.8068504 350.7078 331.0309 352.4159
0.817485 350.7119 331.0253 352.4097
0.8286445 350.7135 331.0244 352.4088
0.839253 350.6945 331.039 352.4082
0.8504886 350.7044 331.0429 352.4008
0.8613128 350.6966 331.0475 352.4084
0.8734874 350.7045 331.0417 352.414
0.8848039 350.6978 331.0301 352.4073
0.8959984 350.7055 331.0408 352.404
0.9068719 350.7023 331.0402 352.4186
0.9174492 350.6873 331.0345 352.4117
0.9283622 350.7081 331.0441 352.4187
0.9393431 350.7057 331.0341 352.4183
0.9500397 350.6938 331.0448 352.4193
0.9607731 350.704 331.0443 352.4156
0.9714019 350.7116 331.0413 352.4175
0.9866354 350.7149 331.0404 352.414
1.019687 350.7239 331.0437 352.4133
1.050035 350.7105 331.0303 352.4049
1.06812 350.7046 331.0399 352.4211
1.078742 350.709 331.039 352.4269
1.090594 350.7159 331.0285 352.425
1.102087 350.7166 331.0213 352.4299
1.112702 350.7108 331.0312 352.4283
1.123414 350.7011 331.0368 352.4163
1.135965 350.7059 331.0332 352.4326
1.165161 350.6938 331.0361 352.4252
1.196238 350.7074 331.0298 352.4209
1.233136 350.7113 331.0399 352.4257
1.264629 350.7134 331.0246 352.4229
1.291626 350.7231 331.0333 352.4225
1.308409 350.7125 331.038 352.4308
1.319633 350.7066 331.0319 352.4229
1.330262 350.713 331.0213 352.4406
1.341212 350.7121 331.022 352.427
1.352745 350.7214 331.0233 352.4383
1.363467 350.7207 331.0212 352.4401
1.374623 350.7277 331.0107 352.4368
1.385553 350.7178 331.0335 352.4306
1.398473 350.7114 331.022 352.4324
1.426871 350.7133 331.0367 352.4364
1.443421 350.7134 331.0391 352.42
1.454815 350.7112 331.0251 352.4234
1.465873 350.728 331.0261 352.4211
1.47647 350.7169 331.0376 352.4262
1.487473 350.7128 331.0296 352.4277
1.498682 350.7206 331.0355 352.4179
1.509915 350.7052 331.0206 352.4309
1.520952 350.7169 331.0332 352.4279
1.533255 350.7077 331.0245 352.427
1.546426 350.7052 331.0218 352.4279
1.575803 350.713 331.033 352.4279
1.608599 350.7228 331.0245 352.427
1.626487 350.7086 331.0259 352.427
1.639213 350.709 331.0134 352.4421
1.666333 350.7083 331.011 352.4357
1.68291 350.698 331.0098 352.4287
1.699369 350.705 331.0109 352.4224
1.712414 350.7126 331.0255 352.4135
1.723075 350.7172 331.012 352.4186
1.734611 350.7037 331.0162 352.417
1.74766 350.7204 331.0289 352.4157
1.758471 350.7099 331.004 352.4281
1.769642 350.701 331.0218 352.4231
1.783506 350.7024 331.0128 352.4178
1.794362 350.7098 331.0287 352.43
1.805158 350.7013 331.0138 352.4287
1.816328 350.7081 331.0163 352.4285
1.826958 350.7007 331.0123 352.4149
1.838302 350.7151 331.0171 352.4091
1.849474 350.7083 331.0284 352.4155
1.860535 350.7003 331.0161 352.4144
1.871369 350.7064 331.0118 352.4211
1.882171 350.7124 331.0109 352.4194
1.892579 350.7124 331.0148 352.4318
1.903389 350.6978 331.0115 352.4268
1.914361 350.702 331.021 352.4171
1.925367 350.7162 331.0222 352.4229
1.935975 350.7198 331.0217 352.4163
1.946676 350.7091 331.001 352.4151
1.957441 350.6998 331.0048 352.4249
1.968304 350.7185 331.0112 352.4213
1.978666 350.7108 331.0191 352.4199
1.989174 350.7012 331.0277 352.4235
1.999874 350.698 331.0137 352.4317
2.010578 350.7008 331.0058 352.4187
2.021593 350.7089 331.004 352.424
2.032492 350.6988 331.013 352.4186
2.043137 350.6936 331.0098 352.4154
2.05416 350.7076 331.0115 352.4214
2.065783 350.7038 331.0087 352.407
2.076349 350.7086 330.9953 352.4199
2.08694 350.7071 331.019 352.4265
2.09804 350.7183 331 352.4217
2.108828 350.7078 331.0218 352.4225
2.119637 350.7227 331.0111 352.4292
2.130213 350.7119 331.0087 352.428
2.140897 350.705 331.0126 352.4246
2.152092 350.7135 331.0228 352.4229
2.162698 350.7237 331.0091 352.4382
2.173544 350.7153 331.0175 352.4245
2.184569 350.7108 331.004 352.4357
2.195459 350.7107 331.0252 352.4173
2.20636 350.7143 331.0023 352.4355
2.217404 350.7129 331.0127 352.4236
2.228119 350.6975 331.0108 352.4308
2.240225 350.718 330.9977 352.439
2.251181 350.7161 331.0083 352.4145
2.261843 350.7058 331.0093 352.427
2.272812 350.7109 331.0154 352.41
2.283964 350.6996 331.0047 352.4354
2.294893 350.7176 331.0082 352.4326
2.308124 350.7068 331.0105 352.4364
2.321228 350.7045 331.0179 352.4319
2.332539 350.717 331.006 352.4246
2.345283 350.7072 331.0105 352.437
2.358881 350.7138 331.0148 352.4332
2.370132 350.7267 331.0064 352.4396
2.383075 350.6969 330.9995 352.4247
2.393978 350.7113 331.007 352.4256
2.407068 350.7079 331.0172 352.4251
2.420229 350.7202 331.0076 352.425
2.433953 350.7136 331.0016 352.4198
2.447139 350.7261 331.0067 352.4249
2.46023 350.7187 331.0028 352.4223
2.473647 350.7271 331.0014 352.4348
2.486558 350.7202 330.997 352.4223
2.499532 350.7163 331.0146 352.4219
2.513256 350.7283 331.0069 352.4337
2.527244 350.7208 331.0139 352.4207
2.539376 350.7223 331.0065 352.425
2.550901 350.7219 331.0077 352.419
2.561926 350.7099 331.0222 352.4301
2.573652 350.7173 331.0065 352.423
2.585363 350.7074 331.0078 352.4218
2.596172 350.7239 331.0059 352.4188
2.607015 350.7223 331.0061 352.4211
2.618549 350.7214 331.0066 352.4104
2.634092 350.7212 331.021 352.4185
2.645244 350.7256 330.9999 352.42
2.656265 350.7126 331.0045 352.4235
2.667381 350.7185 331.004 352.4155
2.678324 350.7264 331.0145 352.4119
2.689362 350.725 331.0062 352.42
2.700641 350.7098 331.0142 352.4165
2.711534 350.7146 331.0175 352.4028
2.7229 350.7107 331.0085 352.4186
2.734049 350.7169 331.0121 352.4172
2.745863 350.724 331.0166 352.4155
2.757725 350.7162 331.0107 352.4119
2.769142 350.7133 331.0006 352.418
2.779984 350.7045 330.9939 352.4261
2.790862 350.7137 331.0136 352.4218
2.802239 350.7205 331.0107 352.4163
2.81341 350.7151 331.0052 352.4336
2.825309 350.7039 331.0125 352.419
2.836766 350.7167 331.0143 352.4238
2.848762 350.7187 331.0021 352.4355
2.859817 350.7153 331.0045 352.4277
2.871196 350.7096 331.0069 352.4268
2.882345 350.7149 331.0056 352.4302
2.893646 350.7063 331.0047 352.4251
2.904889 350.7083 331.0018 352.4346
2.916194 350.7165 331.0114 352.4101
2.927125 350.7084 331.0169 352.4257
2.938556 350.7169 331.0192 352.4278
2.949902 350.7007 331.0099 352.4312
2.960718 350.7133 331.027 352.4337
2.972385 350.7072 331.0096 352.4264
2.98408 350.7144 331.0069 352.445
2.994671 350.7306 331.0059 352.433
3.005981 350.7083 331.0195 352.4282
3.017313 350.7072 331.0128 352.4275
3.028433 350.7085 331.0202 352.429
3.040228 350.7156 331.008 352.4416
3.051295 350.7092 331.019 352.4332
3.062505 350.7164 331.0225 352.4204
3.074089 350.7048 331.0012 352.4312
3.085084 350.7086 331.0098 352.4316
3.095646 350.7151 331.0105 352.4356
3.106165 350.7178 331.013 352.4333
3.117451 350.7036 331.0028 352.4248
3.128072 350.7125 331.0116 352.4288
3.138693 350.7006 331.0018 352.4294
3.149311 350.7159 331.0121 352.4174
3.160036 350.7135 331.0082 352.4207
3.17057 350.716 331.0153 352.4198
3.181333 350.7077 331.0179 352.427
3.191865 350.7039 330.9994 352.4343
3.202622 350.6938 331.0171 352.4203
3.218151 350.6998 331.0127 352.4202
3.228868 350.707 331.0116 352.4196
3.240748 350.7056 331.0166 352.4233
3.252652 350.711 331.0109 352.415
3.263778 350.7156 331.0062 352.4095
3.27468 350.7091 331.0039 352.423
3.285639 350.7161 331.0062 352.4125
3.29708 350.7164 331.0182 352.4118
3.310645 350.7139 331.0016 352.4133
3.321227 350.7069 331.0091 352.4238
3.332068 350.7076 331.0169 352.4147
3.343031 350.7107 331.0178 352.4207
3.35417 350.7052 331.0251 352.4238
3.365383 350.7 331.004 352.429
3.376539 350.7117 331.0172 352.4184
3.389023 350.6999 331.0197 352.415
3.401148 350.7083 331.0213 352.4082
3.412154 350.7195 331.0077 352.4192
3.422833 350.7131 331.0101 352.4076
3.435057 350.7176 331.0262 352.407
3.445558 350.7156 331.0087 352.4123
3.456412 350.7095 331.018 352.4238
3.467083 350.7202 331.0197 352.4077
3.477665 350.7215 331.0095 352.4215
3.488642 350.7089 331.0115 352.4316
3.499437 350.7331 331.0043 352.4236
3.516678 0 0 0
