時間[s] x軸周り[deg] y軸周り[deg] z軸周り[deg]
0 0 0 0
0.02 0 0 0
0.05333333 355.2817 351.7328 0.5372938
0.08666666 356.7516 352.0975 359.2708
0.12 356.6946 352.4108 358.93
0.15051 356.6159 353.0272 358.5029
0.1838433 357.0895 353.4014 359.1758
0.2158138 357.7484 354.9862 359.2259
0.2478088 357.4471 355.9584 359.0752
0.2811421 356.7453 357.4393 358.72
0.3144755 356.4858 358.6617 358.9549
0.3464326 354.2957 359.4226 359.3828
0.3797659 352.8259 359.3271 359.8832
0.4081298 349.4465 358.3673 0.6650524
0.4414631 345.3923 357.7503 0.8059856
0.4747965 343.8726 357.546 0.2262763
0.5081298 343.7936 357.4766 359.4568
0.5414631 344.8986 357.4893 359.8513
0.5747965 346.0014 357.4419 0.1551846
0.6043122 346.4917 357.5204 0.02683502
0.6357782 346.6742 357.5897 359.7467
0.6687389 347.2045 357.5635 359.375
0.6981199 347.4538 357.4622 359.5267
0.7266931 347.9946 357.4837 359.6952
0.7559936 348.4339 357.534 359.8278
0.7860779 348.8047 357.6749 359.9846
0.8194112 349.4944 357.933 359.8886
0.8476305 350.3824 358.3452 359.7671
0.8776135 351.2178 358.6697 359.7865
0.9109468 351.9077 358.9915 359.7893
0.9442638 352.7955 359.7984 359.53
0.974503 352.6952 0.2417492 359.5114
1.007836 352.4998 0.4897455 359.6112
1.038711 353.3593 0.9418739 359.6835
1.069831 354.2906 1.042579 359.6942
1.098669 355.8065 1.179862 359.6837
1.128474 357.7879 1.300616 359.7721
1.157557 358.8609 1.308918 359.8157
1.189572 359.7601 1.177523 359.7897
1.218347 0.6121358 0.9494382 359.6444
1.25168 1.421328 0.7359028 359.4339
1.284341 1.535851 0.3659647 359.3014
1.314372 1.41026 0.01747706 359.1938
1.347705 1.387812 359.7939 359.139
1.381038 5.995568 351.5166 359.4288
1.414372 6.085442 351.196 359.419
1.447705 5.778926 350.0275 359.3307
1.478396 5.674882 349.522 359.5363
1.51173 5.54992 349.3927 359.8422
1.543772 5.328476 349.3315 359.9352
1.577106 5.257621 349.4182 359.952
1.60652 5.177285 349.7142 0.0994083
1.635665 5.043405 349.852 0.1671028
1.668998 5.013421 350.0457 0.2180567
1.702332 4.9814 350.2515 0.299445
1.730499 4.864412 350.3893 0.5215242
1.762076 4.750504 350.6581 0.739697
1.793015 4.61313 351.0702 0.9347816
1.826348 4.331933 351.9461 1.088901
1.859385 4.077802 352.8833 1.22457
1.892111 3.313207 354.996 1.279832
1.925077 2.747139 356.8678 1.386663
1.95841 2.574366 358.8032 1.592451
1.991744 2.31545 0.8086464 1.660177
2.020413 2.391821 2.16563 1.595036
2.05032 2.515384 3.795294 1.560653
2.082296 2.503919 5.253354 1.408147
2.112242 1.827006 6.257166 0.9971182
2.145576 1.763769 6.760103 0.753083
2.175486 2.031002 7.401227 0.7448463
2.207616 2.232226 7.72367 0.796195
2.238476 2.410656 7.684062 0.8290175
2.27181 2.509308 7.558129 0.819512
2.305143 2.639264 7.322277 0.6119138
2.338476 2.777471 6.966404 0.4532844
2.371033 2.721656 6.476105 0.2082924
2.404366 2.474256 6.17633 359.982
2.437699 1.645304 5.675662 359.3159
2.471033 0.7330248 5.382658 358.7102
2.504366 0.09631462 5.202882 358.4318
2.535088 0.05728157 5.038349 358.5343
2.566205 0.1788088 4.770557 358.8038
2.599538 0.5004309 4.512159 358.9802
2.632871 0.7900606 4.116962 359.0314
2.666205 1.021581 3.719581 359.0394
2.698056 1.387794 2.777483 358.9157
2.728325 1.213364 1.854574 358.6777
2.761255 0.8340416 0.8660908 358.4898
2.794588 0.6375155 359.7828 358.3706
2.82286 0.5468004 358.5257 358.4398
2.855819 0.4468619 357.1063 358.5508
2.889153 0.5242775 355.612 358.5614
2.922486 0.7646666 354.3603 358.5404
2.955819 0.9288162 353.2313 358.4236
2.989153 0.8955783 352.4943 358.4326
3.01843 0.8157053 352.103 358.5687
3.05081 0.9138764 352.0707 358.7346
3.082146 0.906626 352.0887 358.9305
3.11548 0.9834913 352.1549 359.0624
3.145104 0.8882011 352.3127 359.1152
3.175804 0.7025427 352.4386 359.0911
3.207586 0.835654 352.5554 359.0239
3.23954 0.7790098 352.7031 358.8424
3.272873 0.8579424 352.9074 358.7706
3.302037 0.8600268 353.2796 358.7022
3.33438 0.763388 353.6195 358.7076
3.36766 0.6762274 353.9346 358.7834
3.397184 0.5121118 354.1991 358.6612
3.430517 0.450273 354.3322 358.6571
3.460935 0.3852299 354.4799 358.6663
3.494022 0.2637898 354.6024 358.6245
3.525481 0.1137982 354.5376 358.9309
3.556017 359.77 354.3913 359.3387
3.58935 359.2921 354.2243 359.6008
3.621129 359.0799 354.083 359.7978
3.651399 359.2274 353.9532 9.316316E-05
3.682006 359.3823 353.8043 0.007603996
3.712085 359.2854 353.677 359.9796
3.745418 359.2959 353.6471 359.9435
3.776317 359.514 353.7242 359.7823
3.808403 359.8053 353.7977 359.7489
3.83983 359.8502 353.9082 359.7737
3.873164 359.8452 354.0273 359.8018
3.906497 359.7874 354.1443 359.7775
3.938628 359.7625 354.1968 359.7672
3.969592 359.6209 354.2191 359.8003
4.002925 359.4115 354.24 359.7544
4.036259 359.2435 354.2589 359.8269
4.069592 359.2102 354.2158 359.8455
4.102925 359.1604 354.2249 359.803
4.136259 359.2025 354.204 359.7372
4.165339 359.2235 354.2148 359.6883
4.196229 359.194 354.2391 359.644
4.229562 359.1292 354.2612 359.6344
4.262896 359.0902 354.358 359.5461
4.293809 359.0182 354.4561 359.4751
4.326158 358.9788 354.5144 359.4247
4.356313 359.0117 354.5945 359.2562
4.389646 359.045 354.6382 359.2135
4.419524 359.1584 354.6699 359.2113
4.452858 359.1788 354.6992 359.2876
4.484001 359.126 354.7329 359.3815
4.515546 359.0478 354.7606 359.3751
4.548879 359.2032 354.7246 359.427
4.582213 359.1066 354.7018 359.3874
4.612904 358.9873 354.6549 359.3427
4.646237 358.9615 354.6146 359.407
4.675637 359.0298 354.6266 359.4307
4.708971 359.0065 354.6476 359.4148
4.736977 359.0718 354.6718 359.4194
4.767458 359.197 354.6949 359.4077
4.797514 359.2223 354.7103 359.4063
4.829293 359.2777 354.6554 359.4445
4.862627 359.3297 354.607 359.4839
4.893906 359.3536 354.5327 359.4682
4.924161 359.3356 354.4854 359.563
4.95712 359.3475 354.4458 359.5594
4.988036 359.4106 354.406 359.5363
5.021369 359.4608 354.3682 359.4224
5.048941 359.468 354.3576 359.3674
5.077884 359.7315 354.3779 359.4005
5.107159 359.7584 354.4139 359.4417
5.137722 359.8142 354.4464 359.458
5.171055 359.8453 354.5323 359.5424
5.20386 359.8719 354.5819 359.5249
5.232869 359.8038 354.7063 359.5013
5.266202 359.8152 354.7878 359.4778
5.296279 359.7932 354.8437 359.4803
5.329612 359.8572 354.8631 359.5525
5.362936 359.9604 354.8085 359.6048
5.396269 0.0710659 354.715 359.6305
5.429052 0.2281161 354.4744 359.6955
5.460433 0.3966078 354.1758 359.7449
5.493767 0.6921323 353.803 359.829
5.524068 0.9694781 353.3201 359.925
5.553605 1.150537 352.6054 359.9595
5.586938 1.516863 351.9174 0.05529102
5.617798 1.924966 351.0418 0.1950588
5.651132 2.206343 350.0441 0.2227327
5.680227 2.441078 349.055 0.2861108
5.711473 2.511395 348.3047 0.2394248
5.744807 2.449849 347.9702 0.2662656
5.77814 2.387421 347.9271 0.3273273
5.811473 2.399634 348.2071 0.5048429
5.843095 2.375368 348.8401 0.6737326
5.876137 2.225178 349.6613 0.7719935
5.909363 2.087887 350.3791 0.8526625
5.942447 1.900569 351.053 0.9154191
5.97578 1.786938 351.6845 0.9143164
6.004723 1.922215 352.1792 0.9398396
6.038056 2.104394 352.7526 0.8849291
6.06644 2.314072 353.4017 0.7055969
6.099773 2.473369 354.1935 0.5482133
6.133106 2.794484 355.3972 0.3616528
6.162835 2.744777 357.1387 359.9028
6.191225 2.58175 359.7838 359.8345
6.224558 2.882418 2.668399 0.2070928
6.25359 3.055985 5.167794 0.4061724
6.286923 3.086006 6.724687 0.5141795
6.317108 3.113122 8.595584 0.650807
6.347515 3.241142 9.920946 0.7949653
6.380848 3.046789 10.1024 0.7440384
6.411309 2.755696 9.801849 0.01540057
6.444643 2.702726 9.65696 0.02355592
6.477815 2.735783 9.223241 0.1321411
6.511148 2.795025 8.546731 0.2667806
6.544481 2.840318 8.055671 0.4361072
6.57391 2.869054 7.637579 0.4847397
6.607243 2.849262 7.420722 0.5286756
6.637589 2.734464 7.329381 0.4671147
6.670922 2.695461 7.31588 0.430746
6.701357 2.667097 7.322528 0.5165979
6.734296 2.71929 7.401697 0.5217503
6.767629 2.914634 7.611053 0.5836256
6.800033 3.052016 7.774431 0.6251131
6.829198 3.09315 7.866952 0.6815041
6.862532 3.039763 7.929669 0.6647378
6.895656 2.986766 7.869503 0.715887
6.928989 2.811331 7.779638 0.7254124
6.96204 2.71265 7.543317 0.710411
6.993112 2.570525 7.063492 0.7296441
7.024622 2.505581 6.600677 0.7796398
7.055234 2.477769 6.209171 0.8135881
7.088568 2.441157 5.741039 0.823218
7.118507 2.452867 5.235672 0.7226586
7.151841 2.416792 4.743426 0.7351018
7.185174 2.37405 4.365503 0.7407743
7.21503 2.147052 3.98312 0.6888074
7.248363 2.029551 3.829093 0.6478451
7.277659 1.920547 3.675459 0.5789308
7.310992 1.908799 3.659351 0.3725095
7.339828 1.762579 3.745817 0.02158499
7.370412 1.510377 3.928847 359.7666
7.403745 1.36252 4.139193 359.7728
7.435143 1.177527 4.457485 359.7987
7.465891 0.8384068 4.968426 359.9517
7.499194 0.8300921 5.383176 0.07946747
7.532527 0.9841543 5.895642 0.13917
7.56586 0.9049187 6.568429 0.06841703
7.595871 0.6008 8.402742 0.1394078
7.627 359.961 11.01369 0.8090052
7.659717 359.6711 11.94693 0.9599631
7.69305 359.6619 12.86172 1.227415
7.726384 359.8909 13.39198 1.365392
7.759717 0.2949341 13.1135 1.245719
7.79305 0.5167878 12.57826 0.8972426
7.824088 0.777839 12.06787 0.1066118
7.855943 0.666353 12.43405 359.6017
7.889276 0.7639014 13.40627 359.9228
7.917831 1.084701 14.04509 0.5722994
7.947662 1.151949 14.42842 0.8372331
7.977975 1.421114 14.76609 0.8798769
8.011308 1.593455 14.8756 0.8516686
8.044641 1.959677 14.68396 0.7459776
8.077975 2.171246 14.45383 0.5088722
8.107158 2.326481 14.10978 0.2866368
8.138979 2.679315 13.85602 0.2170907
8.168108 2.727239 13.75598 0.3244449
8.201442 2.903174 13.77578 0.436174
8.233547 3.309577 13.77038 0.4758726
8.263681 3.347152 13.65359 0.5610802
8.297014 3.446407 13.5949 0.5629402
8.328321 3.476963 13.52091 0.4395948
8.361653 3.472754 13.45526 0.4689622
8.394987 3.486666 13.36808 0.5294428
8.427123 3.446764 13.33884 0.4510558
8.460456 3.317641 13.4144 0.3437999
8.49379 3.143933 13.5006 0.2800878
8.527122 3.065598 13.60557 0.1785863
8.556112 3.095216 13.77468 0.1345542
8.587719 3.133394 13.94105 0.1341052
8.621052 3.117951 14.02277 0.123751
8.651528 3.072041 14.167 0.01290835
8.684861 3.079959 14.23183 359.8874
8.715385 3.070452 14.27248 359.8444
8.744129 3.129265 14.2017 359.8494
8.777463 3.27467 14.20989 359.9201
8.808149 3.434254 14.23601 0.05311383
8.841482 3.584569 14.24808 0.09432293
8.870361 3.627491 14.28954 0.1148274
8.903695 3.756306 14.23983 0.07285217
8.936577 3.823442 14.22114 0.0387472
8.966906 3.797687 14.25729 359.9635
9.000239 3.806745 14.25915 359.953
9.033572 3.833816 14.29823 359.9598
9.063861 3.754704 14.35569 0.02566012
9.096741 3.710052 14.35621 0.1193233
9.130074 3.646502 14.2584 0.1562216
9.163407 3.581099 14.17789 0.1434552
9.196561 3.528292 14.12145 0.06802675
9.227069 3.543902 14.11169 0.116812
9.260403 3.591973 14.07353 0.2151146
9.290672 3.553527 14.07921 0.2592741
9.324006 3.543369 14.02981 0.3011693
9.35734 3.440801 14.01398 0.324993
9.387961 3.444991 13.98386 0.3125029
9.417788 3.390881 13.95329 0.2275782
9.451121 3.349714 13.90388 0.1716709
9.484454 3.436486 13.82869 0.2885752
9.513045 3.62094 13.77328 0.309673
9.543257 3.676246 13.6966 0.3671543
9.57659 3.678947 13.667 0.4376835
9.609693 3.732901 13.57491 0.4593296
9.643026 3.731202 13.50202 0.5051354
9.67381 3.727345 13.45755 0.5450351
9.707144 3.770161 13.39814 0.5625412
9.738059 3.795283 13.33421 0.5651464
9.767584 3.817413 13.28385 0.5321947
9.800917 3.805805 13.26552 0.5002198
9.830961 3.704917 13.27096 0.4671277
9.864295 3.709891 13.32637 0.3907243
9.895443 3.734184 13.37685 0.2902199
9.928776 3.813678 13.37634 0.3261574
9.96211 3.860306 13.36826 0.3845894
9.994761 3.849935 13.3227 0.4712716
10.02768 3.781961 13.1878 0.4937861
10.05921 3.813379 13.07164 0.4663171
10.09255 3.812715 13.01573 0.4749872
10.12588 3.716774 12.94077 0.334693
10.15477 3.671265 12.93422 0.3110538
10.1881 3.701807 13.02186 0.3063321
10.21902 3.736884 13.10359 0.2447412
10.25235 3.795549 13.17129 0.2229464
10.28569 3.822905 13.1735 0.1575021
10.31902 3.86194 13.21421 0.1367527
10.34774 3.873369 13.19698 0.1269341
10.38107 3.827296 13.20047 0.1567453
10.40999 3.858956 13.18016 0.1159034
10.44332 3.90116 13.21624 0.1008949
10.47604 3.901971 13.22388 0.1569464
10.50569 3.866772 13.25774 0.1932882
10.53769 3.865601 13.20312 0.1933815
10.56953 3.858516 13.20379 0.101839
10.60286 3.884172 13.19487 0.1295025
10.63444 3.954354 13.22613 0.1932714
10.66348 3.891747 13.252 0.3338255
10.69397 3.88677 13.19551 0.3837255
10.72298 3.859628 13.1262 0.3994953
10.75631 3.879435 12.99804 0.4385144
10.78673 3.838575 12.93314 0.3913802
10.81758 3.792531 12.89127 0.3098539
10.84716 3.794378 12.90304 0.3676431
10.88049 3.844733 12.94285 0.4143484
10.91382 3.903711 12.98582 0.3808234
10.94715 3.919199 12.98981 0.35567
10.9763 3.947161 13.00015 0.2807201
11.00701 3.967011 13.0006 0.2713789
11.03994 3.940284 13.01702 0.2748123
11.07327 3.889478 13.06093 0.3040781
11.10416 3.916729 13.04941 0.3794682
11.13575 4.001296 13.07767 0.4236174
11.16722 3.988541 13.09727 0.5146134
11.19859 3.953375 13.05564 0.5625198
11.23193 3.960695 12.99516 0.5400566
11.265 3.99845 12.96091 0.3999921
11.29834 4.011847 12.97216 0.4635027
11.33145 4.046759 12.99677 0.5872177
11.36034 3.997849 12.9686 0.6671932
11.39368 3.958198 12.91093 0.6641849
11.42583 3.936703 12.86924 0.6391208
11.45521 3.909714 12.84804 0.6756141
11.48528 3.878987 12.83479 0.5817206
11.51861 3.848991 12.84768 0.6401517
11.55194 3.863971 12.9165 0.7266949
11.58356 3.884173 12.93978 0.7130445
11.61471 3.920624 12.94919 0.6865039
11.64805 3.965299 12.92367 0.6544424
11.68138 3.964013 12.94969 0.6774855
11.71471 3.936862 12.94192 0.689865
11.74415 3.943473 12.95351 0.7541876
11.77474 3.992204 12.9207 0.7953295
11.80807 4.004855 12.86645 0.7976178
11.8398 3.988613 12.86866 0.8549959
11.87314 3.97709 12.85206 0.8487785
11.90647 3.978113 12.84931 0.8060423
11.9359 3.974366 12.89035 0.7310711
11.96669 4.00549 12.90388 0.8506382
11.99664 4.005105 12.89059 0.9063039
12.02997 4.024168 12.83839 0.9185819
12.06008 4.00954 12.71667 0.9557904
12.09318 4.019834 12.62086 0.9202991
12.12631 3.950694 12.58615 0.9847859
12.15831 3.778463 12.49047 0.9613922
12.19165 3.665204 12.37474 1.013659
12.22427 3.705764 12.22799 1.129242
12.25482 3.827643 12.09366 1.113884
12.288 3.881512 11.93942 1.07406
12.32134 3.968821 11.76697 1.00872
12.35467 3.965383 11.62 0.9447765
12.38603 3.912973 11.38806 0.9214813
12.41937 3.87774 11.12987 1.02058
12.45178 3.806878 10.65754 1.069469
12.48511 3.833428 10.21492 1.04899
12.51845 3.818165 9.750452 0.9686261
12.55178 3.639624 9.068144 0.8856857
12.58166 3.460836 8.299615 0.7570949
12.61171 3.20933 7.497805 0.5639816
12.64473 2.965173 6.850098 0.3739725
12.67807 2.823093 5.81456 0.27036
12.70827 2.600905 4.729903 0.1999195
12.74111 2.261297 3.075111 0.0111544
12.77349 1.980108 1.879983 359.83
12.8045 1.607837 0.6092377 359.6378
12.83783 1.295376 359.4748 359.4681
12.8689 1.011205 358.6834 359.3141
12.89824 0.5556589 357.4529 359.1198
12.93158 0.3712696 356.8873 359.0993
12.9611 0.1578738 356.2771 359.098
12.99444 359.8911 355.8007 359.0812
13.02777 359.6246 355.4796 359.0762
13.0611 359.3828 355.2821 359.0962
13.0928 359.2615 355.3067 359.122
13.12346 359.1662 355.5117 359.1035
13.15679 359.1279 355.7932 359.0755
13.18911 359.0939 356.0928 359.0455
13.22245 359.1821 356.5895 359.0461
13.25485 359.123 356.9772 358.9656
13.28355 359.0378 357.2309 358.9293
13.31688 359.0527 357.5426 358.7315
13.3499 359.0204 357.7545 358.6263
13.38148 359.1044 357.9741 358.5775
13.41482 359.1268 358.1843 358.5632
13.44574 359.1469 358.2726 358.5811
13.47908 359.1729 358.4131 358.4958
13.5085 359.2642 358.4587 358.4457
13.53816 359.2 358.4924 358.3922
13.5691 359.1698 358.4883 358.3485
13.59836 359.1542 358.4852 358.3297
13.63169 359.2388 358.5195 358.3738
13.66355 359.3053 358.5131 358.3503
13.69555 359.3317 358.4997 358.3422
13.72474 359.3325 358.4975 358.3521
13.75599 359.3159 358.4761 358.3851
13.78932 359.2928 358.4621 358.4527
13.8193 359.2509 358.4363 358.4935
13.84821 359.2459 358.4094 358.5756
13.87765 359.2027 358.3963 358.6657
13.90646 359.1859 358.3829 358.7056
13.93979 359.1982 358.3512 358.7835
13.96961 359.179 358.3483 358.8238
14.00146 359.1039 358.3451 358.9024
14.03357 359.0164 358.3344 358.8535
14.0669 358.9579 358.3322 358.962
14.10024 358.9151 358.3436 359.0886
14.13082 358.8385 358.3307 359.2238
14.15944 358.7033 358.2846 359.4053
14.19277 358.7 358.3011 359.4665
14.22155 358.73 358.2421 359.5625
14.25488 358.7192 358.2997 359.4606
14.28821 358.6614 358.3723 359.4264
14.3208 358.712 358.5097 359.3683
14.35007 358.737 358.5439 359.3326
14.38126 358.7715 358.6019 359.3007
14.4146 358.8069 358.7106 359.2147
14.4444 358.662 358.7321 359.1998
14.47377 358.8679 358.7874 359.1696
14.50628 359.0358 358.849 359.1328
14.53481 359.1676 358.888 359.0429
14.56814 359.1649 358.9935 359.0455
14.60044 359.1648 359.0406 359.0946
14.63055 359.0469 359.1074 359.1765
14.65956 358.8376 359.0879 359.2069
14.68971 358.779 359.0743 359.1768
14.72305 358.8497 359.0201 359.1745
14.75442 358.9944 358.9492 359.2763
14.78457 359.1023 358.8212 359.279
14.81439 359.1023 358.7435 359.2913
14.84522 359.0551 358.6833 359.2974
14.87856 358.9724 358.6526 359.2952
14.91084 358.8915 358.6848 359.347
14.94127 358.7016 358.7353 359.2862
14.97456 358.6101 358.7415 359.3683
15.00574 358.619 358.7294 359.4142
15.03908 358.5984 358.7071 359.408
15.06909 358.6226 358.6817 359.4131
15.10074 358.5584 358.6655 359.4751
15.13117 358.5923 358.6837 359.4902
15.1627 358.6099 358.6794 359.5272
15.19604 358.6227 358.6605 359.5927
15.22677 358.5798 358.6156 359.613
15.25832 358.6947 358.5599 359.601
15.28815 358.7108 358.4997 359.5791
15.32148 358.6403 358.4944 359.6024
15.35482 358.5262 358.4778 359.6076
15.38815 358.5423 358.5085 359.5817
15.41704 358.4486 358.5419 359.4529
15.44835 358.5419 358.5692 359.5102
15.47752 358.6459 358.5763 359.5964
15.51085 358.6869 358.5686 359.7149
15.54156 358.6824 358.5571 359.7544
15.57489 358.683 358.4874 359.7736
15.60516 358.6529 358.4384 359.8198
15.6385 358.6385 358.4045 359.7619
15.67183 358.6059 358.4366 359.769
15.70301 358.6006 358.4702 359.8379
15.73307 358.6937 358.5069 359.8523
15.76336 358.7315 358.5268 359.8594
15.79283 358.8136 358.562 359.8227
15.82616 358.787 358.5461 359.8127
15.8595 358.7621 358.58 359.8453
15.8893 358.7833 358.572 359.9593
15.92264 358.8233 358.5893 0.04328175
15.95597 358.8071 358.5511 0.1462095
15.9893 358.785 358.4991 0.2780857
16.0203 358.7763 358.4261 0.4144057
16.04921 358.7685 358.2976 0.3847358
16.07917 358.7224 358.1751 0.3305191
16.10854 358.6831 358.1239 0.2492616
16.14188 358.8151 358.109 0.2017709
16.17207 358.9623 358.1693 0.2703822
16.20518 359.0142 358.2869 0.4127667
16.23473 359.0479 358.3203 0.4141833
16.26483 359.0583 358.3193 0.3781429
16.29816 359.0141 358.2607 0.4203988
16.33093 358.8363 358.201 0.3912451
16.36427 358.7299 358.2101 0.3619674
16.39408 358.8012 358.2569 0.3541153
16.42742 358.8554 358.3729 0.3159701
16.46075 358.9258 358.4928 0.3031745
16.49158 358.9548 358.5178 0.2767832
16.52132 358.9877 358.544 0.2653591
16.54963 358.9877 358.549 0.339444
16.58281 358.9252 358.5347 0.3615159
16.61614 358.8205 358.5134 0.3678207
16.64557 358.788 358.5175 0.400599
16.67674 358.851 358.4972 0.4687838
16.70909 358.916 358.5355 0.5468702
16.73855 358.9413 358.5937 0.6222329
16.77188 358.9468 358.6422 0.6137974
16.80522 358.949 358.6813 0.4662048
16.83743 358.9179 358.6614 0.5566899
16.86742 359.0089 358.6586 0.7126116
16.89867 359.0444 358.6457 0.7599397
16.932 359.0069 358.6073 0.8338413
16.96534 358.9594 358.5651 0.8107561
16.99495 358.9172 358.5713 0.9159169
17.02828 358.808 358.5445 0.8915888
17.05812 358.6783 358.5285 0.9429128
17.09145 358.688 358.4937 1.033593
17.12154 358.7154 358.5005 1.00062
17.15487 358.7618 358.5016 0.9943238
17.18509 358.7679 358.5283 0.9060578
17.21842 358.7137 358.6302 0.8641223
17.25175 358.6739 358.695 0.8504888
17.28242 358.6188 358.8215 0.841442
17.31238 358.5971 358.8919 0.835746
17.34196 358.5124 358.8867 0.8182598
17.37104 358.4772 358.906 0.8389177
17.40438 358.4376 358.8799 0.9008542
17.43624 358.4195 358.8351 0.9438736
17.46626 358.2961 358.8221 0.8854079
17.49633 358.1864 358.8132 0.8790213
17.52664 358.1792 358.804 1.015985
17.55997 358.2207 358.7404 1.1104
17.59312 358.2122 358.6721 1.264508
17.62645 358.0177 358.4642 1.318597
17.65642 357.9228 358.2446 1.379759
17.68558 357.8 358.1242 1.453158
17.71891 357.6908 358.0528 1.487562
17.75224 357.4435 357.946 1.56357
17.78558 357.2138 357.749 1.712581
17.81521 356.9204 357.5378 1.757707
17.84648 356.6003 357.3547 1.847519
17.87981 356.0559 357.0109 1.940277
17.91115 355.4483 356.6242 2.077279
17.93992 354.735 356.2849 2.2283
17.97281 354.0754 355.929 2.34663
18.00181 353.4267 355.5757 2.417773
18.03514 353.0207 355.3158 2.448755
18.06411 352.6035 355.0302 2.524567
18.09586 352.3304 354.7891 2.645474
18.12919 352.2657 354.7719 2.667026
18.16174 352.2599 354.9237 2.685632
18.19507 352.2856 355.1441 2.59563
18.2284 352.4555 355.4361 2.552459
18.25737 352.5721 355.81 2.707167
18.29071 352.6887 356.0712 2.795576
18.32404 352.9221 356.4218 2.662701
18.35737 352.9066 356.8297 2.521557
18.38949 352.7234 357.1827 2.482446
18.41956 352.6237 357.5453 2.28298
18.45241 352.5259 357.8472 2.099555
18.48328 352.4373 358.0912 1.97979
18.51661 352.6243 358.2937 1.844571
18.54661 352.8724 358.4619 1.71135
18.57606 353.541 358.7223 1.3787
18.60696 353.9055 358.8665 1.267628
18.63729 354.0033 359.0876 1.063061
18.67063 354.1337 359.3854 0.749646
18.70267 354.1884 359.6491 0.5678005
18.73372 354.1511 359.8688 0.537446
18.76278 354.0772 0.08618039 0.5274714
18.79563 354.1551 0.2519819 0.5004681
18.82896 354.3027 0.4520188 0.4262998
18.85902 354.3626 0.5962448 0.3310087
18.89055 354.371 0.7593789 0.2745976
18.92146 354.2806 0.9460715 0.1537589
18.95065 354.2086 1.116212 0.1860428
18.98399 354.3608 1.220413 0.3224647
19.01245 354.4644 1.304377 0.4261745
19.04291 354.6252 1.306854 0.546832
19.07147 354.6929 1.294501 0.6326824
19.10288 354.8435 1.274688 0.6876789
19.13622 354.9623 1.218969 0.7262059
19.16895 355.0009 1.142161 0.7254508
19.19982 355.091 1.046515 0.8264278
19.23195 355.1893 0.985699 0.8673629
19.26092 355.258 0.9874144 0.8121338
19.29425 355.2827 1.025932 0.820295
19.32758 355.4154 1.166338 0.8051748
19.36007 355.4881 1.422812 0.8687038
19.39337 355.5643 1.640034 0.9417369
19.42332 355.5891 1.857426 1.021559
19.45665 355.7134 2.060354 1.172827
19.48631 355.8503 2.213885 1.312281
19.5151 356.0585 2.307442 1.487171
19.54844 356.0553 2.356539 1.590494
19.57836 356.1673 2.472556 1.652135
19.61169 356.2534 2.576663 1.500075
19.64194 356.3872 2.691343 1.472551
19.67372 356.6161 2.846292 1.501059
19.70258 356.6207 2.949774 1.453105
19.73376 356.7224 3.073972 1.437701
19.76709 356.851 3.27877 1.459525
19.79648 356.9759 3.414306 1.473461
19.82522 357.1754 3.704273 1.550062
19.85721 357.2622 3.884988 1.551877
19.88701 357.4037 4.143962 1.65927
19.92035 357.5083 4.383659 1.75875
19.95206 357.5609 4.569334 1.768607
19.98539 357.6457 4.897643 1.667957
20.01672 357.7341 5.118313 1.527188
20.04671 357.7698 5.265855 1.50089
20.08004 357.7742 5.455465 1.47207
20.11337 357.8206 5.520379 1.459858
20.14665 357.8256 5.647763 1.406209
20.17998 357.8518 5.713811 1.339346
20.21056 357.9019 5.741323 1.326303
20.24389 357.8833 5.780251 1.339485
20.27723 357.8609 5.803391 1.362705
20.31056 357.8336 5.812079 1.324189
20.34098 357.8193 5.905353 1.191917
20.3713 357.897 5.958108 1.20582
20.40463 357.8706 6.064279 1.226636
20.43797 357.8235 6.128728 1.281093
20.46685 357.8022 6.203991 1.303431
20.50018 357.8112 6.228601 1.351112
20.53172 357.7681 6.285213 1.310122
20.56506 357.6402 6.293805 1.236151
20.59359 357.547 6.362862 1.161473
20.62631 357.5088 6.39179 1.146145
20.65902 357.4241 6.45481 1.094851
20.68863 357.3954 6.514522 1.026233
20.72196 357.3451 6.58264 0.97944
20.75529 357.3197 6.672453 0.9861366
20.78863 357.338 6.762003 0.970272
20.81861 357.3572 6.919774 0.9643661
20.85007 357.339 6.951135 0.9817431
20.8834 357.3095 6.998648 0.9963475
20.91317 357.2613 7.007088 1.049921
20.94587 357.1422 6.989069 1.0481
20.97516 357.0259 6.945597 1.093286
21.00612 356.9732 6.897025 1.024404
21.03946 356.9021 6.926637 0.9123227
21.07279 356.8268 6.909497 0.9505983
21.10545 356.9409 6.964241 1.014651
21.13507 356.9997 6.939116 1.113103
21.1684 357.0331 6.912814 1.150664
21.20173 357.0471 6.824195 1.189725
21.23078 357.0591 6.721699 1.217053
21.26411 356.9368 6.627652 1.134008
21.29329 356.8806 6.560618 1.177502
21.32245 356.9068 6.508797 1.18124
21.35578 356.9839 6.510796 1.213867
21.38742 357.0037 6.522234 1.257535
21.42012 356.9511 6.629211 1.294437
21.45009 357.0139 6.670478 1.315448
21.48257 357.0713 6.711966 1.352113
21.51591 357.1291 6.752451 1.412813
21.54833 357.1162 6.782601 1.433784
21.57891 357.0963 6.753815 1.498796
21.60945 357.0792 6.723907 1.500498
21.6402 357.06 6.745225 1.474028
21.67353 356.9858 6.701327 1.481159
21.7034 356.8739 6.64261 1.477362
21.73648 356.7842 6.557498 1.381146
21.76982 356.7009 6.535367 1.116898
21.79859 356.8772 6.482128 1.177349
21.83193 356.9991 6.498774 1.264919
21.86344 357.0583 6.482073 1.292843
21.89376 357.0654 6.556537 1.273371
21.9271 357.0339 6.558322 1.335544
21.96043 356.9683 6.54411 1.2962
21.99376 356.8635 6.60026 1.215833
22.02406 356.839 6.641843 1.289174
22.05607 356.8199 6.733617 1.282758
22.08724 356.8482 6.724926 1.280196
22.12058 356.9326 6.759381 1.299561
22.15391 357.0409 6.827408 1.270392
22.18242 357.1288 6.866793 1.26574
22.21544 357.1251 6.896741 1.251918
22.24878 357.1343 6.843721 1.275217
22.27852 357.2434 6.744275 1.307589
22.31185 357.3795 6.696547 1.364684
22.34192 357.4566 6.637064 1.406868
22.37087 357.4867 6.662173 1.374561
22.40097 357.4115 6.722774 1.332418
22.43196 357.2984 6.794848 1.056018
22.46529 357.2735 6.753218 1.016024
22.49685 357.45 6.578893 1.007937
22.52689 357.6025 6.314264 1.048999
22.55859 357.5656 6.193466 1.111769
22.58982 357.5254 6.062396 1.162279
22.62316 357.5752 6.00021 1.417102
22.65467 357.6264 6.010901 1.604201
22.68465 357.6472 6.024096 1.807896
22.71798 357.6787 6.050909 1.966387
22.75109 357.7231 6.054604 1.952622
22.78442 357.6614 6.013063 1.919182
22.81775 357.6393 5.928113 1.883964
22.84995 357.6857 5.861767 1.893268
22.88021 357.6583 5.90327 1.875456
22.91031 357.5644 6.004029 1.889787
22.94365 357.5446 6.125952 1.823398
22.97611 357.5516 6.206778 1.727992
23.0055 357.4321 6.236112 1.502521
23.03667 357.326 6.185641 1.429006
23.07 357.1839 6.208839 1.352952
23.10334 357.0116 6.316679 1.384971
23.13294 357.1664 6.679178 1.695441
23.163 357.3431 6.962342 1.885951
23.19633 357.3769 7.105873 1.960985
23.22762 357.4243 7.07948 1.988351
23.26095 357.3984 6.966721 1.958947
23.29203 357.3524 6.82358 1.904037
23.32482 357.2777 6.651046 1.698735
23.3554 357.3558 6.573789 1.730474
23.38873 357.4942 6.60176 1.701017
23.42206 357.6777 6.677386 1.678887
23.4554 357.8403 6.775177 1.707572
23.48873 358.0377 6.947186 1.634575
23.52016 358.0027 7.009085 1.598531
23.55108 357.9803 7.030631 1.616115
23.58442 357.9524 7.07626 1.554862
23.61564 357.9063 7.140939 1.492791
23.64898 357.9187 7.081552 1.476166
23.67963 357.9479 7.054292 1.424132
23.71088 357.9791 6.97129 1.343644
23.74421 358.092 6.974514 1.205869
23.77285 358.094 6.991856 1.036076
23.80618 358.2764 7.1011 0.9965078
23.83607 358.3033 7.234465 1.033114
23.86627 358.3004 7.261239 1.032617
23.8996 358.2678 7.28261 1.053814
23.93294 358.2899 7.176929 0.9942217
23.96336 358.4158 6.96066 0.9800093
23.9967 358.4264 6.875189 0.9559022
24.02937 358.4796 6.820006 0.9919196
24.0627 358.5494 6.777091 1.048588
24.09373 358.6063 6.667671 1.094522
24.12529 358.6212 6.56189 1.03758
24.15832 358.6522 6.519205 0.9921205
24.19048 358.6316 6.540494 1.105553
24.22382 358.4721 6.434083 1.229509
24.25715 358.3126 6.259451 1.258691
24.28951 358.2763 6.04113 1.404978
24.32285 358.2097 5.881031 1.594451
24.35298 358.1464 5.750436 1.759572
24.38631 358.0855 5.65732 1.92337
24.41467 358.0967 5.585666 1.974759
24.44592 358.0896 5.495998 1.966286
24.47839 358.1739 5.418407 1.804552
24.50936 358.3866 5.473993 1.781227
24.54269 358.5746 5.63086 1.858359
24.57373 358.5787 5.73392 1.842955
24.60601 358.5154 5.870541 1.809669
24.63678 358.5219 5.957119 1.762213
24.67011 358.5947 6.049791 1.886276
24.70344 358.6512 6.352913 1.743842
24.73678 358.601 6.514622 1.738083
24.76732 358.6177 6.548173 1.612838
24.79589 358.5849 6.459664 1.456903
24.82632 358.5817 6.357304 1.337834
24.85965 358.6302 6.273779 1.322825
24.89298 358.7031 6.282059 1.394984
24.92524 358.7028 6.395092 1.458425
24.95857 358.6358 6.457975 1.526966
24.99024 358.6011 6.478067 1.590048
25.02357 358.5883 6.445208 1.586096
25.05691 358.5299 6.387496 1.642426
25.08933 358.4828 6.366358 1.605241
25.11883 358.5387 6.371055 1.542067
25.15217 358.5811 6.351874 1.515033
25.1855 358.7238 6.368995 1.659202
25.21825 358.7472 6.339603 1.668502
25.2501 358.8186 6.247993 1.705092
25.27892 358.8634 6.131156 1.755558
25.31038 358.8559 6.034743 1.773343
25.34372 358.7697 5.961514 1.810322
25.37229 358.7242 5.943951 1.73138
25.40562 358.6089 5.953095 1.775011
25.43635 358.5918 5.945307 1.805473
25.46968 358.6055 5.93327 1.754932
25.50302 358.6267 5.943168 1.772125
25.53273 358.6571 5.964971 1.745329
25.56326 358.6543 5.964794 1.807661
25.59475 358.6581 5.96452 1.840699
25.62748 358.5869 5.862457 1.850371
25.66081 358.5616 5.805956 1.841763
25.69415 358.6114 5.729446 1.862605
25.72748 358.5722 5.719491 1.932633
25.75856 358.5707 5.764507 1.869533
25.78843 358.5347 5.800202 1.777437
25.82177 358.5453 5.820796 1.820413
25.85321 358.6339 5.847425 1.911077
25.88397 358.6463 5.843919 1.930317
25.91731 358.6513 5.806248 1.931052
25.94596 358.6453 5.737072 1.897456
25.97929 358.6387 5.697136 1.889266
26.00867 358.5526 5.667915 1.833696
26.03876 358.4838 5.691339 1.769315
26.06727 358.4599 5.722551 1.794733
26.09831 358.4845 5.773701 1.779865
26.13164 358.4892 5.804858 1.752159
26.16194 358.5272 5.924132 1.719124
26.19527 358.6125 5.97552 1.6901
26.2286 358.5461 5.942601 1.67408
26.26181 358.5476 5.904149 1.664561
26.29514 358.5612 5.848604 1.656877
26.32848 358.5765 5.820931 1.690975
26.36181 358.6183 5.832274 1.71403
26.39475 358.5874 5.864484 1.770016
26.42808 358.5439 5.897506 1.753949
26.46142 358.5778 5.9326 1.650769
26.49475 358.5573 5.990803 1.491653
26.52499 358.6934 6.098262 1.512086
26.55615 358.7602 6.173893 1.535192
26.58948 358.8027 6.223154 1.566244
26.62281 358.7987 6.172249 1.537504
26.65181 358.8211 6.063969 1.506456
26.68213 358.774 6.039898 1.517099
26.71037 358.7176 6.025974 1.453887
26.74059 358.6602 6.072382 1.372268
26.77392 358.7048 6.137284 1.376832
26.80587 358.7237 6.148201 1.31441
26.83677 358.6897 6.132667 1.165915
26.87011 358.6023 6.065782 1.068125
26.89893 358.5956 6.01196 1.033188
26.93226 358.748 6.068263 1.026931
26.9638 358.87 6.131382 1.032119
26.99598 358.8723 6.103098 1.048575
27.02677 359.0627 6.007832 1.034618
27.05655 359.2747 5.920714 1.100105
27.08989 359.2958 5.870247 1.132193
27.12 359.1942 5.771314 1.235303
27.15248 359.1316 5.672957 1.269995
27.18402 359.1858 5.60605 1.346582
27.21513 359.1317 5.647717 1.200987
27.24846 359.1134 5.654576 1.1963
27.27935 359.1548 5.670614 1.212507
27.30883 359.0329 5.566758 1.23197
27.33762 359.0361 5.48236 1.220729
27.37027 359.0786 5.407623 1.238735
27.4036 359.1323 5.421723 1.249787
27.43483 358.9841 5.457669 1.169742
27.46464 358.85 5.440983 1.044724
27.49604 358.7975 5.419723 0.9359151
27.52514 358.7172 5.429555 0.7592024
27.55847 358.6504 5.406788 0.6039417
27.59181 358.6648 5.398441 0.4978289
27.62514 358.6639 5.304488 0.4234579
27.65556 358.6707 5.17236 0.3921982
27.68611 358.6483 4.989406 0.4511572
27.71944 358.6889 4.819172 0.5468904
27.75124 358.7079 4.617038 0.5864674
27.78028 358.6779 4.449514 0.6996477
27.81256 358.6267 4.298545 0.6898543
27.84393 358.5214 4.064665 0.5718871
27.87727 358.4949 3.864746 0.4958504
27.90863 358.4302 3.61473 0.2842236
27.93888 358.4382 3.286899 0.3098488
27.96995 358.4132 3.10208 0.2640047
28.00207 358.3304 2.825101 0.2504274
28.03541 358.3025 2.575705 0.2665482
28.06874 358.2909 2.318907 0.1472162
28.098 358.2287 2.037603 0.01809408
28.13133 358.1429 1.913563 359.933
28.16459 357.9586 1.674632 359.8481
28.19792 358.0129 1.504145 359.855
28.22691 358.0263 1.376491 359.8321
28.26024 357.9658 1.190668 359.8192
28.29206 357.946 0.9820844 359.8072
28.32351 357.841 0.8084676 359.7851
28.35684 357.7678 0.6209762 359.7704
28.39017 357.6573 0.3725169 359.8347
28.41959 357.4682 0.1006667 359.9544
28.45183 357.3054 359.8253 0.05496829
28.48174 357.2522 359.4856 0.1562815
28.51507 357.208 359.1581 0.2527448
28.54501 357.2142 358.7869 0.3121628
28.57834 357.0614 358.5062 0.3519067
28.60822 357.0132 358.2423 0.3430279
28.63779 357.0747 357.9473 0.4804255
28.67112 357.0981 357.7213 0.5611581
28.70209 357.0488 357.4354 0.6082968
28.73135 357.0228 357.1544 0.6482975
28.76152 356.9465 356.8607 0.6643007
28.79486 356.907 356.5925 0.6835397
28.82819 356.7892 356.3409 0.6828454
28.8596 356.6874 356.1001 0.6934364
28.89055 356.6556 355.8281 0.7782674
28.92085 356.7139 355.6093 0.8194277
28.95121 356.6791 355.4153 0.8672516
28.98454 356.694 355.332 0.9391657
29.01414 356.7445 355.2107 0.9818446
29.04501 356.7698 355.0463 0.9380971
29.07474 356.7747 354.9248 0.9344304
29.10679 356.8174 354.8185 0.95631
29.14013 356.8449 354.6962 0.9917732
29.17157 356.9329 354.6075 1.081174
29.20259 357.0985 354.5534 1.136401
29.23325 357.1242 354.48 1.147521
29.26658 357.1877 354.4118 1.069464
29.29991 357.3732 354.2901 0.929498
29.33145 357.5735 354.1425 0.8237334
29.36053 357.9541 353.9858 0.7420143
29.3906 358.21 353.9819 0.6845258
29.42393 358.3344 354.0521 0.6927205
29.45727 358.3898 354.2111 0.7598168
29.48625 358.3598 354.359 0.8117117
29.51772 358.2048 354.4312 0.8896587
29.55105 358.0616 354.4016 0.8642501
29.58438 357.9511 354.2942 0.9348608
29.61772 357.8427 354.2405 1.038065
29.64847 357.6727 354.2234 1.020133
29.68176 357.4799 354.3193 0.9973484
29.7151 357.4846 354.5129 1.093854
29.74583 357.4135 354.7346 1.164369
29.77916 357.1052 354.9976 0.9922154
29.8072 357.0405 355.2487 0.5322908
29.83692 357.112 355.1823 0.3324048
29.866 357.0794 354.7815 0.6647301
29.89934 357.0245 354.3947 1.006696
29.93267 356.6597 354.0914 1.017749
29.96282 356.376 353.9358 0.9656963
29.99107 356.0648 353.8443 0.8490843
30.0244 356.0336 353.8113 0.7358133
30.05773 356.0865 353.8194 0.6241876
30.09107 356.1237 353.8033 0.802909
30.12204 356.0668 353.7868 0.9172708
30.15335 355.8323 353.7825 1.088962
30.18668 355.6689 353.8015 0.9457252
30.21634 355.543 353.8888 0.7339036
30.24967 355.445 353.9875 0.7498349
30.28015 355.3412 354.0756 0.6656772
30.30887 355.3366 354.1439 0.5599823
30.33932 355.3912 354.2563 0.4617812
30.37034 355.4557 354.2462 0.4195931
30.40368 355.3888 354.1741 0.4985861
30.43268 355.2627 354.0223 0.5262494
30.46511 355.1967 353.8721 0.4772977
30.49552 355.2249 353.873 0.4112892
30.52676 355.1731 353.9513 0.3023891
30.56009 355.1631 354.0496 0.2121458
30.59118 355.2008 354.0832 0.2153668
30.62138 355.2283 354.1142 0.2702286
30.65134 355.2028 354.1803 0.3065862
30.68016 355.1578 354.2336 0.3289716
30.7135 355.095 354.3255 0.3043067
30.74683 354.9588 354.4383 0.187824
30.78016 354.7365 354.55 0.1382045
30.8135 354.7322 354.6187 0.1482613
30.84578 354.8289 354.6591 0.1134482
30.87911 354.8779 354.7012 0.1288103
30.90951 354.7124 354.7695 0.09856358
30.94108 354.5177 354.7792 0.2809712
30.97218 354.5042 354.7919 0.3023199
31.00436 354.6013 354.8488 0.2136925
31.03769 354.5372 354.8691 0.2232108
31.07024 354.4402 354.8606 0.1570089
31.10048 354.5048 354.8326 0.08068965
31.13055 354.6315 354.8306 0.03469088
31.16216 354.7259 354.8473 359.9781
31.19549 354.7705 354.8637 359.9241
31.22883 354.8247 354.9354 359.8477
31.25794 354.7444 355.0603 359.7196
31.29127 354.7683 355.1499 359.6649
31.32073 354.8051 355.2611 359.7486
31.35406 354.8127 355.3943 359.8547
31.38479 354.7788 355.5323 359.9034
31.41512 354.7495 355.7514 359.8433
31.44412 354.6179 355.9562 359.7194
31.47745 354.582 356.0501 359.6589
31.51079 354.6456 356.1656 359.6931
31.54094 354.6396 356.1931 359.7217
31.57074 354.602 356.2035 359.8646
31.60082 354.6877 356.2357 359.9688
31.63389 354.6634 356.26 0.0750732
31.66722 354.6324 356.3048 0.0822269
31.69803 354.5511 356.3694 0.04304439
31.73137 354.5524 356.3519 0.1539921
31.76025 354.6354 356.3875 0.2086138
31.79358 354.6325 356.3767 0.2127684
31.82691 354.54 356.3424 0.2158319
31.85728 354.48 356.3182 0.1610841
31.88726 354.4911 356.3055 0.02060662
31.91735 354.5412 356.3073 359.8925
31.94653 354.5661 356.3634 359.8039
31.97986 354.617 356.3573 359.8211
32.01169 354.6608 356.3786 359.9021
32.04317 354.6731 356.4427 0.03747115
32.07306 354.6527 356.5099 0.07230575
32.10338 354.5645 356.5945 0.1422705
32.13671 354.4667 356.6193 0.1474697
32.17005 354.4496 356.6801 0.07951371
32.19944 354.585 356.6393 0.2285729
32.23045 354.7094 356.6427 0.3553376
32.25972 354.7765 356.5697 0.439158
32.29305 354.8651 356.5153 0.552919
32.32638 354.9149 356.507 0.5661789
32.35798 354.9794 356.4301 0.6733791
32.3869 354.9901 356.3705 0.677926
32.41962 354.9838 356.368 0.6799739
32.45296 354.9434 356.2889 0.7605124
32.48629 354.9152 356.2172 0.7709083
32.51698 354.9886 356.0882 0.6440229
32.54818 355.0539 356.0426 0.630756
32.58151 355.0853 356.0569 0.591055
32.61485 355.1422 356.09 0.6318032
32.64704 355.1386 356.1366 0.7330043
32.68037 355.1841 356.1633 0.8531551
32.71237 355.239 356.111 0.909218
32.7457 355.3325 356.0598 0.876998
32.77904 355.3403 356.0609 0.9045473
32.81018 355.3343 356.0383 0.898132
32.84238 355.3366 356.1233 0.8510074
32.87571 355.3117 356.1809 0.6687837
32.90649 355.4539 356.2047 0.7165719
32.93982 355.5594 356.2552 0.6813686
32.97316 355.5704 356.2414 0.6280667
33.0027 355.5987 356.2379 0.6761307
33.03588 355.5735 356.2721 0.7056456
33.06655 355.5034 356.2863 0.8816816
33.09988 355.3609 356.2901 0.8614793
33.12999 355.2992 356.276 0.8487114
33.159 355.211 356.264 0.7770203
33.19233 355.1417 356.2853 0.7309641
33.22328 355.115 356.3321 0.5635948
33.25661 355.1683 356.376 0.5370087
33.28654 355.1878 356.4251 0.545826
33.3166 355.1199 356.5098 0.5473574
33.34493 355.1883 356.5529 0.5828224
33.37826 355.2553 356.6137 0.60586
33.41159 355.2548 356.6535 0.6567941
33.44493 355.2437 356.6292 0.6894295
33.47826 355.2299 356.6107 0.7510515
33.51006 355.1814 356.5791 0.7049909
33.54168 355.2092 356.5595 0.775778
33.57501 355.243 356.5758 0.8486996
33.60411 355.278 356.6592 0.8254821
33.63744 355.2818 356.8132 0.8332614
33.66909 355.2663 357.0717 0.7884878
33.69956 355.2115 357.3488 0.8376054
33.73289 355.0742 357.5449 0.817094
33.76342 354.8683 357.7813 0.6494979
33.79245 354.7333 357.9033 0.788354
33.82397 354.6576 357.9181 0.8096544
33.85661 354.6156 357.8897 0.8252935
33.88994 354.6099 357.8352 0.7533897
33.91911 354.683 357.6902 0.7352235
33.95244 354.6657 357.5114 0.7844664
33.98331 354.6345 357.3716 0.8514568
34.01395 354.5912 357.2308 0.9496237
34.04728 354.645 357.0915 1.065643
34.08062 354.6807 357.0114 1.146954
34.11005 354.7165 356.9487 1.280906
34.13969 354.689 356.8654 1.352067
34.16921 354.5634 356.8361 1.426713
34.20255 354.4862 356.873 1.259303
34.23415 354.4981 356.9802 1.052434
34.26368 354.7613 357.1035 1.094484
34.29212 354.869 357.1973 1.085071
34.32545 354.958 357.2204 1.07593
34.35878 354.9558 357.3131 0.9141502
34.38845 354.9373 357.3332 0.7850971
34.4166 354.8956 357.3651 0.7159212
34.44613 354.7743 357.37 0.6314552
34.47546 354.7536 357.3805 0.6104055
34.5088 354.7495 357.3674 0.6535838
34.54213 354.8055 357.3468 0.6626557
34.57504 354.8509 357.3146 0.6847435
34.60675 354.9842 357.2474 0.6628028
34.63729 355.0985 357.1882 0.6793537
34.67062 355.2037 357.0744 0.7087338
34.70121 355.3188 356.948 0.7788112
34.73195 355.5061 356.8446 0.8624382
34.76366 355.7312 356.7255 0.9502587
34.79445 355.8862 356.6556 1.030111
34.82778 356.0022 356.5854 1.031182
34.85847 356.1698 356.5243 0.9600078
34.8918 356.469 356.4397 0.6790568
34.92306 356.8759 356.2856 0.5549269
34.95639 357.3826 356.127 0.5117854
34.98973 357.8107 355.8942 0.4091846
35.02149 358.1305 355.6038 0.2586462
35.05068 358.6158 355.2801 0.1431387
35.08398 358.7777 355.0999 0.1623274
35.11343 358.9335 354.9777 0.07940233
35.14676 358.9496 354.9161 -0.004155674
35.17498 359.0943 354.8841 0.009652793
35.20832 359.2056 354.8822 0.005546593
35.24011 359.2033 354.923 0.05234263
35.26936 359.1248 354.9048 0.2010939
35.3027 359.2166 354.9216 0.3080553
35.33414 359.3712 354.8998 0.3791549
35.36466 359.5156 354.8738 0.4220538
35.39478 359.5568 354.9023 0.4320877
35.42575 359.6488 354.9819 0.4207067
35.45908 359.7073 355.0086 0.352599
35.49242 359.7188 355.0081 0.3324534
35.52575 359.7786 354.9431 0.2093507
35.55494 359.7716 354.933 0.1016219
35.58671 359.7978 354.9404 0.00560543
35.62004 359.893 354.9208 0.08592465
35.65171 -0.000349005 354.9484 0.1072326
35.68172 359.9848 354.9528 0.2166148
35.71267 0.03486571 354.9313 0.2680675
35.7443 0.01282958 354.9361 0.2217306
35.77764 359.9572 354.8889 0.2999032
35.80863 359.7937 354.8619 0.2866403
35.83838 359.7027 354.8232 0.290396
35.86741 359.6946 354.7648 0.4723958
35.90007 359.7144 354.7026 0.5375937
35.93341 359.7573 354.5801 0.5900153
35.96347 359.7343 354.5201 0.7276651
35.99575 359.8119 354.4617 0.8223252
36.02573 359.9086 354.3527 0.8259482
36.05906 359.9064 354.3149 0.777449
36.09239 359.9412 354.3289 0.7237755
36.1238 359.8868 354.3916 0.7184556
36.15713 359.8394 354.4469 0.6508112
36.1871 359.8196 354.5103 0.67127
36.21815 359.7558 354.5679 0.6459365
36.25149 359.7587 354.5354 0.6696618
36.28482 359.9333 354.5305 0.7668803
36.31379 359.9844 354.5528 0.815739
36.34394 359.9666 354.4725 0.9550008
36.37728 359.9459 354.4266 0.9294081
36.41061 359.9091 354.3582 0.9045535
36.44025 359.8041 354.3419 0.8802778
36.47152 359.7234 354.3489 0.9108155
36.50486 359.647 354.3175 0.9306006
36.53437 359.6474 354.2716 0.8813437
36.5677 359.6282 354.2542 0.8174958
36.60025 359.5886 354.2643 0.7163888
36.63274 359.5928 354.2948 0.6216042
36.66309 359.5492 354.4155 0.5530873
36.69257 359.4335 354.454 0.5301806
36.72591 359.3396 354.4801 0.4592582
36.75429 359.3082 354.4926 0.460068
36.78539 359.2765 354.4865 0.4976157
36.81673 359.2066 354.4768 0.5651881
36.84609 359.144 354.4946 0.5588045
36.87943 359.1788 354.4813 0.5044233
36.91006 359.178 354.5119 0.2877494
36.93999 359.3102 354.6082 0.179269
36.97063 359.5616 354.6401 0.2351591
37.00352 359.653 354.6259 0.3403887
37.03685 359.6355 354.5858 0.520359
37.06784 359.6161 354.5211 0.5511681
37.09777 359.6818 354.4518 0.5569301
37.12699 359.6415 354.4862 0.539691
37.15836 359.5461 354.5049 0.4507445
37.19169 359.4434 354.5918 0.4184517
37.2235 359.4519 354.7302 0.3829564
37.25304 359.4683 354.8476 0.254709
37.28307 359.458 354.9852 0.1106748
37.31204 359.4547 355.1138 0.05306494
37.34537 359.4344 355.1841 0.04618558
37.37546 359.4089 355.2784 0.1490176
37.40787 359.4548 355.3087 0.2242409
37.43681 359.4845 355.3055 0.251264
37.46723 359.5024 355.2704 0.2570298
37.50056 359.4508 355.2245 0.3282127
37.53257 359.4111 355.2189 0.3356529
37.56182 359.3889 355.1884 0.3444461
37.59145 359.3259 355.2005 0.25761
37.62093 359.3251 355.1856 0.1613175
37.65427 359.4763 355.1333 0.175435
37.68396 359.6061 355.1566 0.2213769
37.71729 359.5952 355.1521 0.21812
37.75046 359.5414 355.2076 0.1248206
37.78035 359.5305 355.243 0.03516928
37.81369 359.4814 355.3352 0.01227808
37.8448 359.3227 355.3918 359.9847
37.87813 359.2148 355.4329 0.02027764
37.91146 359.1944 355.501 0.08071968
37.94259 359.2338 355.5981 0.1118906
37.97592 359.2075 355.6603 0.1628595
38.00826 359.1478 355.7693 0.2685857
38.03707 359.0823 355.8542 0.3063444
38.06791 359.0201 355.8833 0.3919859
38.09922 358.9895 355.9135 0.4362032
38.13256 358.9203 355.8845 0.4800094
38.16228 358.6826 355.8793 0.4938882
38.19316 358.5656 355.8387 0.4070271
38.22404 358.7003 355.9143 0.4596161
38.25291 359.0929 356.0236 0.643209
38.28624 359.2462 356.1496 0.6607804
38.31953 358.9318 356.302 0.5595521
38.34906 358.3617 356.4985 0.3789743
38.37767 358.0027 356.6761 0.3133729
38.41101 357.6869 356.8239 0.2952038
38.44434 357.3711 356.9702 0.2581024
38.47366 357.3477 357.1851 0.2758049
38.50257 357.0722 357.5608 0.1613359
38.5359 356.6578 358.068 0.01738974
38.56583 355.85 359.9163 -0.0009907575
38.59916 355.7745 1.043588 0.05367777
38.63047 355.4832 3.052152 359.9839
38.66175 355.2849 6.206223 0.0534546
38.69372 355.1776 7.957038 0.01963495
38.72547 355.7151 9.997448 359.825
38.7588 355.8399 11.74791 359.6596
38.79213 355.7432 13.79511 359.5703
38.82064 355.4077 16.66296 359.7548
38.85305 355.3251 19.15522 359.8028
38.88638 355.592 20.78526 0.1225797
38.91972 355.5591 22.80513 0.3317591
38.94868 355.1581 25.42756 0.3489866
38.97839 354.8376 29.07958 0.01153731
39.00846 354.6056 34.41445 359.5352
39.04179 354.2776 40.41926 359.311
39.07513 353.7685 47.21008 358.8062
39.10673 353.5516 52.1203 358.4031
39.13552 353.3748 60.06683 357.5183
39.16886 353.3535 64.69966 356.8927
39.19958 353.6335 71.53086 357.2508
39.23292 354.2232 73.89346 357.5008
39.26625 354.9688 75.98491 357.45
39.29942 355.8025 77.1884 356.9258
39.3309 356.0928 77.26964 356.986
39.36142 356.3336 76.84566 356.9912
39.39475 356.253 76.32155 357.3442
39.42607 356.0556 75.54198 357.4754
39.4594 355.8809 74.80481 357.4902
39.49044 355.8265 74.25642 357.5253
39.51998 355.745 74.17436 357.605
39.55331 355.8383 74.69871 357.5472
39.58152 355.7679 75.52396 358.08
39.61295 355.9189 76.2161 358.3165
39.64222 356.0424 76.53687 358.1713
39.67256 356.0483 76.54134 358.0273
39.7059 356.0394 76.33855 358.2617
39.73923 356.2106 76.24245 358.148
39.76894 356.2567 76.145 358.1457
39.79837 356.2948 76.10491 358.0862
39.82689 356.357 75.95348 358.097
39.86022 356.4264 75.75013 358.0676
39.89148 356.3884 75.58601 358.231
39.92132 356.3415 75.40454 358.2216
39.94977 356.4052 75.3531 358.1453
39.98207 356.5174 75.01076 358.1821
40.01538 356.4582 74.62313 358.0678
40.04501 356.4534 73.73456 358.1015
40.07365 356.4299 71.63737 358.2105
40.10301 356.529 68.28831 358.5543
40.13103 356.933 64.86645 358.7043
40.16251 357.7131 58.33155 358.1112
40.19585 357.6646 50.61903 358.0169
40.2276 357.9428 43.57854 358.3116
40.26093 358.514 36.27437 357.7139
40.29427 358.2315 28.60255 357.0205
40.32371 358.0317 19.31876 356.9779
40.35704 357.7357 14.82295 356.928
40.38554 357.1032 9.143786 357.0231
40.41554 356.9087 3.272888 357.4877
40.44621 356.9529 0.8665834 358.0573
40.47621 357.2026 358.07 358.2421
40.50954 356.851 356.9999 358.2805
40.54288 357.1097 356.6696 359.018
40.57436 357.8449 355.8188 359.8631
40.60769 357.8586 355.6099 359.972
40.63597 357.6965 355.7908 0.1200907
40.6693 357.6432 356.0058 0.1497651
40.6986 357.7248 356.4178 0.39202
40.72874 357.7613 356.9317 0.6172713
40.76125 357.6858 357.0964 0.8095215
40.79459 357.4513 357.2221 0.9945199
40.82792 357.0759 357.2296 0.9016375
40.85902 356.7997 357.1864 1.008618
40.88786 356.6638 356.7754 1.364485
40.91728 356.3404 356.3133 1.539687
40.94751 356.0651 356.0356 1.46729
40.98084 356.0245 355.9426 1.403144
41.01051 356.1008 355.6453 1.292943
41.04384 355.8879 355.2982 1.288135
41.07417 355.6274 355.1243 1.292709
41.10554 355.2948 355.0591 1.232405
41.13887 354.6843 355.151 1.230049
41.1722 354.3344 355.4217 1.256023
41.20055 353.9183 355.7201 1.450301
41.23366 353.7311 355.8645 1.523169
41.26699 353.5407 356.1404 1.58734
41.30032 353.3429 356.4022 1.529741
41.33239 353.0258 356.7839 1.315603
41.36221 352.4319 357.8102 0.941394
41.39042 352.1237 358.7668 0.8896667
41.42197 352.022 359.919 1.047935
41.4553 352.2067 1.228034 1.223312
41.48532 352.5838 2.582198 1.021822
41.51865 352.9051 3.537189 0.7967367
41.55199 353.1235 4.05833 0.5119399
41.58532 353.185 4.382214 0.327063
41.61865 353.037 4.413151 0.1581292
41.64763 352.7517 4.481738 0.02923008
41.67766 352.6327 4.578465 0.02008093
41.70839 352.6523 4.566646 0.03678604
41.73957 352.6054 4.514943 359.9193
41.7729 352.6589 4.445037 359.7312
41.80624 352.5411 4.379073 359.658
41.83678 352.3007 4.282159 359.6653
41.86841 352.127 4.267651 359.745
41.89715 351.8889 4.258233 359.854
41.93048 351.5924 4.213511 0.08465382
41.96382 351.498 4.164114 0.2344246
41.99332 351.496 4.095083 0.417539
42.02665 351.3706 3.967626 0.5426628
42.0583 351.2554 3.723516 0.6317061
42.09163 351.2033 3.471945 0.6508894
42.12497 351.2484 3.232431 0.5641229
42.1583 351.5086 3.030946 0.6479391
42.18745 351.7296 2.935247 0.7379742
42.22078 351.7745 2.863377 0.851167
42.25412 351.7691 2.711856 0.8862872
42.28689 351.9356 2.57414 0.9036923
42.31567 351.9417 2.521059 0.9349825
42.34481 351.8216 2.554938 0.9279304
42.37553 351.6218 2.648537 1.03047
42.40886 351.5031 2.665767 1.150266
42.43948 351.382 2.607396 1.201072
42.47281 351.3047 2.511897 1.20727
42.50571 351.2944 2.449761 1.152478
42.53503 351.4135 2.434749 1.057554
42.56837 351.6468 2.493335 0.9664696
42.60066 351.769 2.452265 0.9233704
42.63066 351.9457 2.455938 0.8873266
42.66114 352.0589 2.5029 0.8263597
42.69447 352.1614 2.52174 0.7797379
42.7278 352.1266 2.564107 0.7901571
42.75992 352.0858 2.662161 0.7594029
42.78867 352.0335 2.759145 0.6798929
42.81833 352.0465 2.845161 0.6858308
42.8473 352.1607 2.893877 0.8489789
42.88063 352.2883 2.899334 0.9575422
42.91258 352.4901 2.887455 1.053651
42.94272 352.6215 2.866677 1.12002
42.97328 352.6895 2.862846 1.115913
43.00364 352.7491 2.864179 1.114237
43.03697 352.8372 2.881901 1.017358
43.0703 352.9106 2.917343 0.935568
43.09896 353.1083 2.967903 0.8642594
43.1323 353.2488 3.105618 0.7008067
43.16563 353.3111 3.239693 0.5986959
43.19896 353.3597 3.32096 0.5263696
43.22879 353.3111 3.435848 0.4506361
43.26022 353.3981 3.545792 0.3451274
43.29355 353.3561 3.644116 0.28733
43.32364 353.2902 3.807959 0.3117171
43.35698 353.2702 3.897037 0.348642
43.38887 353.2578 4.169773 0.4559935
43.41895 353.279 4.469968 0.5402671
43.44922 353.3994 4.889422 0.614082
43.48191 353.4996 5.388463 0.5416588
43.51524 353.6039 5.780492 0.4338236
43.54708 353.8458 6.27111 0.39012
43.57882 354.1795 6.932171 0.4033654
43.60746 354.3136 7.230182 0.4469999
43.63696 354.4057 7.484519 0.5300018
43.6703 354.6562 7.671297 0.5730657
43.69963 354.8205 7.694197 0.5808773
43.72919 355.0895 7.696557 0.5758477
43.76056 355.3057 7.678305 0.6374415
43.78944 355.359 7.652616 0.6677161
43.82278 355.3454 7.675584 0.6372818
43.85095 355.3084 7.650543 0.607646
43.88232 355.3213 7.666936 0.4597484
43.91105 355.3312 7.717123 0.3937054
43.94223 355.3203 7.786643 0.4384969
43.97556 355.3467 7.821139 0.5864335
44.0061 355.4142 7.805097 0.7796287
44.03479 355.5128 7.766037 0.9070251
44.06505 355.5534 7.686758 1.00651
44.09376 355.7278 7.610709 1.128797
44.12709 355.8536 7.580217 1.13802
44.1573 355.9636 7.526523 1.164906
44.19031 355.9947 7.590728 1.099683
44.21901 356.0049 7.668189 1.050203
44.2492 356.0889 7.74091 1.101218
44.28253 356.0977 7.795857 1.133502
44.31586 356.0815 7.777849 1.209816
44.34446 355.9716 7.772512 1.245702
44.37332 355.8354 7.724316 1.233335
44.40338 355.7677 7.66981 1.238087
44.43671 355.7128 7.622132 1.119229
44.46487 355.675 7.575264 1.042799
44.49464 355.7073 7.597643 1.05209
44.52293 355.7517 7.597915 1.050069
44.55443 355.8323 7.633878 1.042336
44.58776 355.9401 7.725252 0.9908622
44.6211 356.0175 7.771848 1.005986
44.6516 356.0084 7.823746 1.001909
44.68355 356.0598 7.800237 1.016284
44.71476 356.0742 7.771339 1.080856
44.74809 356.0728 7.707494 1.18169
44.77754 356.0908 7.670611 1.236342
44.80977 356.1015 7.585948 1.297104
44.83815 356.1127 7.498589 1.379423
44.87149 356.0701 7.422059 1.449028
44.90482 355.9925 7.439914 1.46449
44.93518 355.9953 7.437175 1.405163
44.96387 356.1358 7.491844 1.573156
44.9972 356.1935 7.48403 1.61174
45.02758 356.1947 7.430573 1.764567
45.06091 356.3011 7.354556 1.858284
45.09306 356.3673 7.273245 1.925126
45.12391 356.3675 7.142505 2.069196
45.15353 356.3232 7.064793 2.058788
45.18436 356.3239 6.984254 2.144138
45.2177 356.3134 6.927397 2.268595
45.25031 356.3627 6.904353 2.268267
45.27946 356.4181 6.826599 2.268346
45.3091 356.5697 6.812803 2.207628
45.34149 356.6983 6.806272 2.185014
45.37482 356.9334 6.75983 2.254349
45.40321 357.3378 6.541278 2.31943
45.43654 358.0434 6.172528 2.327163
45.46581 358.975 5.76309 2.210722
45.49573 359.9195 5.164705 2.184872
45.52906 0.788765 4.389732 2.225231
45.5624 1.476265 3.803406 2.219599
45.59573 2.661261 2.872125 2.311307
45.62606 3.456274 2.158971 2.149692
45.65907 3.862588 1.586549 1.984396
45.6924 3.838332 1.130412 1.907756
45.72274 3.563596 0.823033 1.777956
45.75271 3.339955 0.634028 1.838841
45.78172 3.202638 0.4705806 2.019179
45.81202 3.217519 0.4545113 2.046865
45.84535 3.164569 0.5979711 1.934494
45.87555 3.017337 0.8843649 1.762863
45.90664 2.938246 1.43028 1.884731
45.93998 2.948425 2.011461 1.682406
45.97084 3.192516 2.509649 1.537032
46.00417 3.432088 2.923057 1.531303
46.0359 3.623637 3.188429 1.344469
46.06606 3.757 3.326376 1.179814
46.09629 4.012193 3.391843 1.028341
46.12962 4.19621 3.413121 0.9879732
46.16296 4.421365 3.367303 0.8766348
46.19425 4.468751 3.445959 0.8144114
46.22346 4.591813 3.752129 0.8560178
46.25645 4.749192 4.151179 1.089154
46.28528 4.835917 4.42508 1.358573
46.31861 4.824232 4.53386 1.469601
46.34962 4.699001 4.633636 1.520297
46.37983 4.731313 4.705711 1.584609
46.4082 4.917565 4.773593 1.656615
46.44153 5.065815 4.870717 1.607125
46.47486 5.092047 5.02574 1.634156
46.50677 5.159832 5.186366 1.693758
46.53926 5.424156 5.481478 1.832424
46.56851 5.555884 5.677862 1.831928
46.59828 5.504783 6.001603 1.795985
46.63161 5.434537 6.350031 2.026572
46.65979 5.396805 6.511837 2.221831
46.68903 5.414137 6.610203 2.439594
46.71748 5.411608 6.649899 2.472212
46.74748 5.230925 6.840611 2.407252
46.78082 4.708288 7.193419 2.250555
46.81402 3.672189 7.911886 2.210836
46.84249 2.357942 9.204193 2.403278
46.87494 2.017839 9.841105 2.525559
46.90827 1.741967 10.72093 2.605238
46.9416 1.628516 11.37652 2.628638
46.97486 1.671764 11.88204 2.68521
47.00438 1.794671 12.20821 2.705258
47.03325 2.058819 12.3319 2.628209
47.0638 2.287989 12.22803 2.450027
47.09714 2.393163 12.05273 2.303881
47.12992 2.472517 11.7005 2.130907
47.16325 2.642745 11.14558 2.190082
47.19511 2.639377 10.53596 2.2163
47.22386 2.727931 10.08535 2.246444
47.25719 2.991871 9.393497 2.304495
47.2885 3.218106 8.555622 2.297685
47.32001 3.351175 7.636275 2.211733
47.35138 3.545056 6.78795 2.202073
47.38471 3.69199 5.888697 2.258807
47.41805 3.906468 5.062325 2.217421
47.44711 4.040913 4.264226 2.203298
47.47818 4.137362 3.578045 2.202692
47.511 4.125564 3.075785 2.21859
47.54155 4.081407 2.744559 2.246158
47.57488 4.069811 2.604585 2.287605
47.6045 4.08809 2.543048 2.337983
47.63453 4.135383 2.492422 2.461976
47.6637 4.225603 2.529455 2.572039
47.69704 4.251611 2.579621 2.641656
47.73037 4.273641 2.583853 2.643689
47.76014 4.260772 2.58734 2.611031
47.79221 4.21743 2.639599 2.561561
47.82145 4.254586 2.647432 2.561299
47.85077 4.248656 2.648982 2.615923
47.88411 4.147486 2.63801 2.640279
47.91379 3.99091 2.639114 2.699392
47.94335 3.770768 2.646154 2.644013
47.97668 3.567384 2.65585 2.714438
48.00688 3.421528 2.71368 2.634226
48.04021 3.266219 2.813036 2.571219
48.07129 3.164906 2.92013 2.564062
48.10291 3.074569 3.072894 2.490465
48.13326 2.903398 3.214102 2.430233
48.1646 2.781406 3.342814 2.362653
48.19793 2.630225 3.565426 2.282787
48.22625 2.381582 3.797493 2.145857
48.25571 2.028745 3.998453 2.041459
48.28904 1.893238 4.168441 1.957982
48.32198 1.708843 4.456825 1.881321
48.35532 1.660899 4.601318 1.857597
48.38865 1.616105 4.671383 1.884716
48.42147 1.428462 4.690557 1.983126
48.45229 1.169395 4.577213 1.970481
48.48214 0.7957528 4.416196 1.895948
48.51547 0.3297811 4.206702 1.831728
48.54517 359.9295 3.999282 1.779244
48.57851 359.4649 3.771094 1.757791
48.61184 359.0613 3.547658 1.67809
48.64126 358.6729 3.3479 1.537844
48.67459 358.1089 3.005878 1.441609
48.70394 357.579 2.727914 1.236534
48.73185 357.135 2.466195 0.990807
48.76103 356.9155 2.28515 0.8151021
48.79042 356.5518 2.104016 0.6973844
48.82375 356.3438 1.855855 0.7417423
48.8541 356.1832 1.655687 0.7479907
48.88576 356.2383 1.37132 0.9531444
48.91888 356.65 1.185861 1.274905
48.95007 357.2145 1.06339 1.28918
48.9834 357.6514 1.145646 1.230414
49.0136 357.772 1.292818 1.195258
49.04693 357.8369 1.527978 1.372502
49.07664 357.8613 1.755816 1.626065
49.10998 357.8824 1.911763 1.804234
49.14331 357.796 1.871252 1.627152
49.17251 357.783 1.636709 1.342686
49.20483 358.0455 1.448797 1.04202
49.2366 358.4793 1.147558 0.6587807
49.26675 359.2289 0.8526366 0.466318
49.30008 0.01737687 0.6656485 0.1901452
49.32986 0.3214903 0.664375 0.01983986
49.36319 0.7433388 1.052764 359.8684
49.39223 0.7499757 1.437237 359.8232
49.42556 0.7362806 1.67682 0.02446705
49.45889 0.7489541 1.717572 0.1199482
49.48779 0.8582739 1.721786 0.2245959
49.51752 0.8913568 1.523113 0.5594993
49.5474 0.8250251 1.389877 0.6762691
49.58039 0.7532724 1.196337 0.8495432
49.61373 0.7695433 1.033099 0.9939483
49.64309 0.8857667 0.9499701 1.021264
49.67269 0.9969196 0.889585 0.9719644
49.70602 1.070259 0.8645937 0.8340996
49.73735 1.124326 0.9270427 0.662825
49.77069 1.241136 0.9736223 0.5717112
49.79882 1.358167 1.136629 0.4368087
49.83172 1.49713 1.269236 0.2610048
49.85983 1.397687 1.445815 0.1656381
49.88986 1.248765 1.547729 0.1415295
49.92319 1.193089 1.636528 0.1161692
49.95457 1.0828 1.693475 0.2005814
49.9879 1.060343 1.655875 0.3027256
50.02123 0.9991179 1.561174 0.2625499
50.05173 0.9767781 1.437968 0.2741615
50.08506 0.9486689 1.314167 0.2819277
50.11455 0.860047 1.236862 0.2231152
50.14589 0.7143009 1.150551 0.2033305
50.17437 0.5641969 1.139683 0.1397328
50.20406 0.4886954 1.15831 0.1601256
50.23739 0.3692971 1.158039 0.199538
50.26756 0.2934957 1.19614 0.1738798
50.29587 0.266687 1.18554 0.1273694
50.32481 0.2796986 1.185808 0.1306622
50.3541 0.2360739 1.255814 0.03263774
50.38744 0.1969407 1.318688 0.02435443
50.41688 0.1685365 1.35588 0.06823807
50.44836 0.2035145 1.349307 0.1433933
50.4788 0.2007053 1.295404 0.2014927
50.51213 0.1203954 1.212163 0.1548642
50.54547 0.06540999 1.118004 0.1808047
50.57595 359.9918 1.08343 0.1149219
50.60627 359.9386 1.03107 0.147727
50.63699 359.9529 1.028593 0.1842956
50.66854 359.9645 1.001436 0.2157291
50.70187 359.9766 0.9713292 0.2644492
50.73035 359.9789 0.9508414 0.2561738
50.76037 359.9152 0.935236 0.2370247
50.7937 359.8358 0.9664026 0.2238503
50.82242 359.6975 1.021891 0.1973689
50.85575 359.5777 1.071214 0.1743102
50.88558 359.5719 1.131227 0.1679057
50.91522 359.4993 1.22825 0.1310984
50.94545 359.53 1.254214 0.1440169
50.97641 359.5373 1.283706 0.09779001
51.00974 359.5292 1.329641 0.1013862
51.043 359.5549 1.358955 0.1489633
51.075 359.6807 1.308298 0.1951987
51.10834 359.7322 1.325801 0.2366633
51.13894 359.7113 1.231302 0.2545953
51.17228 359.7271 1.1954 0.301645
51.20561 359.7544 1.256579 0.301493
51.23559 359.8353 1.224838 0.4150395
51.26629 359.9302 1.214651 0.4857605
51.29682 0.01934562 1.134094 0.5223751
51.33015 0.06575453 1.050939 0.5460353
51.36349 0.05525133 0.9979525 0.5884521
51.39682 0.07122751 0.9499334 0.6221735
51.42667 0.04033517 0.9560716 0.5650375
51.45876 359.9304 1.006816 0.5937453
51.49209 359.9081 1.058577 0.6147489
51.5215 359.9546 1.094306 0.5873486
51.55237 0.006680165 1.100213 0.6174659
51.58136 0.05823152 1.101207 0.6344395
51.61023 0.08800244 1.078638 0.6105899
51.64356 0.1003176 1.0922 0.6007294
51.6769 0.06698412 1.053697 0.6352708
51.70643 0.1213631 1.003406 0.6684414
51.73956 0.08777252 0.9998559 0.7097572
51.76937 0.1012401 0.9795551 0.7207677
51.8027 0.05805832 0.9709666 0.7265552
51.83604 359.9791 0.9413673 0.7930659
51.86534 359.9766 0.9667428 0.6674044
51.89688 0.01728109 0.977002 0.6523593
51.92761 0.1518892 0.9534866 0.6975909
51.96095 0.2219625 0.9361411 0.6911035
51.99189 0.2433028 0.9417019 0.7327746
52.02492 0.2143748 0.9231045 0.7391954
52.05464 0.238689 0.8680088 0.6919083
52.08454 0.191938 0.8322658 0.7661504
52.11787 0.1283886 0.8263181 0.7117811
52.148 0.06267585 0.8303698 0.6711999
52.17717 0.07508128 0.8355685 0.6505182
52.20741 0.1344362 0.8383573 0.7232671
52.23987 0.1825382 0.8843413 0.7200736
52.2732 0.2000424 0.9383278 0.7043211
52.30616 0.2252771 0.9602125 0.670265
52.33949 0.2224961 1.013493 0.6226863
52.37283 0.2288033 1.040038 0.5952665
52.4024 0.2191136 1.061439 0.5433306
52.43574 0.2492993 1.02544 0.4423653
52.46616 0.2790925 1.039923 0.4175943
52.49949 0.2545964 1.063252 0.4455072
52.53283 0.2284263 1.072071 0.4899536
52.56332 0.1834111 1.09133 0.4716827
52.59665 0.2233625 1.117645 0.3113793
52.62498 0.2520603 1.132309 0.2467669
52.65671 0.3210781 1.198796 0.2159635
52.68714 0.2672277 1.277012 0.2233846
52.7191 0.2524246 1.272585 0.2091725
52.75244 0.2120335 1.261042 0.2029274
52.78249 0.1856397 1.19267 0.1349304
52.81583 0.1203323 1.135316 0.1669705
52.84808 0.03050596 1.132379 0.1290829
52.88141 0.03267712 1.128026 0.1324101
52.91475 0.1420318 1.097158 0.1358157
52.94808 0.2331093 1.148414 0.1437376
52.97759 0.236413 1.215325 0.1215325
53.00874 0.2456039 1.256899 0.1252439
53.0414 0.2557481 1.338982 0.122224
53.07473 0.2618801 1.367047 0.1324576
53.10614 0.2749757 1.360879 0.1169447
53.13446 0.2356227 1.327907 0.07674744
53.16772 0.159812 1.298809 0.0695909
53.19567 0.1907706 1.280915 0.05066844
53.229 0.2071276 1.289397 0.06874286
53.25739 0.1844071 1.310954 0.1332962
53.29072 0.1253813 1.313797 0.1578313
53.31907 0.1115006 1.251296 0.2096683
53.3524 0.1441222 1.215096 0.1288977
53.38573 0.1803799 1.226551 0.05518327
53.41468 0.239987 1.222331 0.1022598
53.44777 0.286796 1.262717 0.1168844
53.47779 0.2495517 1.227854 0.1549315
53.50875 0.2581894 1.18483 0.1727732
53.54208 0.3015224 1.114802 0.135971
53.57328 0.3271061 1.030811 0.220804
53.6041 0.3202119 1.072625 0.1479293
53.63487 0.3746412 1.120785 0.169014
53.66515 0.3994634 1.158302 0.2002515
53.69848 0.4798037 1.209174 0.1703337
53.72912 0.4378552 1.24855 0.1364411
53.75784 0.5051124 1.270878 0.09929933
53.78786 0.6163982 1.275492 0.06013057
53.81871 0.6327919 1.268199 0.0663364
53.85204 0.6526555 1.256289 0.06489878
53.88115 0.6457247 1.245736 0.09371343
53.91169 0.7003053 1.224859 0.08879014
53.94062 0.7398573 1.214244 0.08581395
53.97148 0.7590184 1.224979 0.09891475
54.00481 0.7457235 1.20383 0.1257243
54.03814 0.7536358 1.23895 0.1119496
54.06758 0.7040796 1.299792 0.1320744
54.10028 0.6379415 1.324377 0.111425
54.12951 0.66857 1.325962 0.1173121
54.16285 0.682251 1.370202 -0.0001152451
54.19175 0.6949533 1.410983 359.9578
54.22509 0.8148307 1.429608 359.9425
54.25314 0.9440197 1.459157 359.9485
54.283 0.9838342 1.455557 359.9898
54.31624 1.000035 1.458024 359.9576
54.34781 0.9803954 1.460717 359.9142
54.37656 0.9329685 1.431672 359.9659
54.40615 0.8475831 1.476215 359.8795
54.43417 0.8220345 1.514562 359.8414
54.46751 0.8338329 1.517552 359.9329
54.49525 0.8341448 1.55078 359.8828
54.52441 0.9020368 1.532922 359.8308
54.55316 0.9522065 1.520555 359.8645
54.58317 0.9617835 1.526648 359.7919
54.6165 0.9505419 1.569906 359.7473
54.64974 0.9537162 1.631146 359.6949
54.68245 0.8840938 1.675871 359.7193
54.7142 0.8776939 1.68221 359.7254
54.74291 0.8483074 1.639194 359.7457
54.77625 0.864704 1.597499 359.7426
54.80958 0.8458911 1.586149 359.7901
54.84029 0.758849 1.543428 359.7296
54.86922 0.7349277 1.552125 359.7681
54.8995 0.7505181 1.604038 359.67
54.93283 0.782316 1.579773 359.7499
54.9633 0.8458131 1.571502 359.7636
54.99664 0.9348151 1.537927 359.7775
55.02603 1.01058 1.477736 359.7957
55.05526 1.029243 1.471702 359.7542
55.08859 0.9901069 1.450362 359.7633
55.11811 0.9109777 1.458455 359.7503
55.14762 0.8455187 1.512479 359.7612
55.17636 0.8447257 1.558573 359.7823
55.20583 0.9184116 1.577483 359.7977
55.23916 0.9652876 1.59614 359.7648
55.2725 0.9983489 1.623272 359.7695
55.30283 1.053697 1.618658 359.7615
55.33279 1.036656 1.59944 359.7521
55.36334 1.039257 1.567061 359.7197
55.39667 1.109683 1.537532 359.7991
55.42502 1.158638 1.506805 359.8175
55.45835 1.188543 1.453607 359.8694
55.49169 1.140687 1.447655 359.8816
55.52375 1.119535 1.431438 359.8779
55.55709 1.057965 1.492921 359.8492
55.59042 1.027039 1.513946 359.8214
55.61955 1.06815 1.533304 359.8612
55.64883 1.102826 1.533281 359.8577
55.68073 1.134647 1.474499 359.8509
55.71407 1.170744 1.406726 359.8275
55.7466 1.120739 1.411914 359.7959
55.77686 0.9758567 1.393209 359.8838
55.80489 0.9196762 1.417257 359.7916
55.83778 0.8338451 1.455915 359.861
55.87111 0.7787706 1.419253 359.9085
55.90444 0.791063 1.370556 359.8474
55.93294 0.7278042 1.369514 359.7624
55.96212 0.7285704 1.412901 359.7111
55.99545 0.766081 1.507071 359.7144
56.02878 0.7705296 1.528054 359.7697
56.06211 0.737804 1.563757 359.7569
56.09338 0.7268104 1.523985 359.7386
56.1219 0.7321945 1.491076 359.7479
56.15523 0.724456 1.500488 359.7804
56.18856 0.6832477 1.492902 359.8493
56.21776 0.6634811 1.441915 359.9509
56.2497 0.6370403 1.43764 359.8546
56.27914 0.6867649 1.414872 359.8429
56.30783 0.768485 1.386968 359.9104
56.34116 0.8816108 1.37937 359.8938
56.3706 0.8708006 1.347722 359.9428
56.40032 0.9313686 1.331401 359.9394
56.43365 0.9659911 1.327597 359.9329
56.46699 1.001529 1.284129 0.01662473
56.50032 0.970303 1.238936 -0.002304547
56.53366 0.9252238 1.277548 0.01409527
56.56197 0.8877326 1.185741 0.120038
56.5934 0.8858749 1.177 0.09175386
56.6251 0.9145472 1.138025 0.09549995
56.65843 0.9921076 1.082115 0.0843274
56.68934 1.00336 1.069816 0.07258062
56.72267 1.081882 0.9771612 0.05981084
56.756 1.13884 0.958356 0.05993687
56.78804 0.9948433 0.9711099 0.3923485
56.82138 0.699054 0.630305 0.8810817
56.85471 0.4866573 0.405541 0.9027466
56.88313 359.9004 0.1463024 0.9263682
56.9134 359.6507 359.9928 0.8554612
56.94235 359.7536 359.8311 0.6580167
56.97569 0.06842064 359.6983 0.522992
57.00451 0.4331332 359.5482 0.2316525
57.03569 0.7116372 359.5299 359.9722
57.06468 0.9431059 359.7137 359.6875
57.0952 0.8859875 0.2867961 359.256
57.12854 0.5710937 1.022212 358.9565
57.16187 0.3006918 2.009635 358.96
57.19041 0.2201506 2.794652 358.8423
57.21939 0.2659921 3.114157 358.6776
57.24758 0.3023464 3.391118 358.2887
57.28091 0.4875687 3.406042 358.0051
57.31425 1.010065 3.268483 357.7265
57.34356 1.628102 2.909943 357.5908
57.37392 2.131705 2.536729 357.6181
57.40725 2.473829 2.144899 357.8425
57.44059 2.555916 1.732191 358.2013
57.47071 2.627586 1.301909 358.555
57.50404 2.500602 0.6404073 358.9508
57.53541 2.291988 0.1567076 359.2631
57.56487 2.284918 359.446 359.7883
57.5982 2.322638 358.9694 359.933
57.63012 2.349075 358.5952 359.5811
57.65997 358.0184 358.5166 358.6069
57.69269 357.1355 358.3431 358.6767
57.72483 356.836 358.2863 359.4285
57.75816 355.9239 357.8075 359.684
57.78807 354.8438 357.5555 0.3078489
57.82099 354.2114 357.4641 0.9096889
57.85163 354.1425 357.3603 1.431481
57.88164 354.3927 357.2806 1.754093
57.91497 354.7578 357.485 2.050275
57.94422 355.0783 357.6486 2.313038
57.97756 355.4814 357.697 2.419422
58.00611 355.884 357.6893 2.43128
58.03639 356.1237 357.6626 2.268984
58.06973 356.2785 357.6472 2.011029
58.10306 356.4137 357.5125 1.749716
58.13639 356.7754 357.2177 1.725249
58.16501 356.8598 357.0877 1.815257
58.19835 356.7609 357.1064 1.802964
58.23168 356.7177 357.1333 1.765707
58.26128 356.7241 357.1369 1.869619
58.29187 356.9283 357.1989 2.03876
58.32436 357.0579 357.1761 2.212535
58.35615 357.0722 357.0528 2.492156
58.38948 356.994 356.856 2.764074
58.41964 356.9155 356.7749 2.825628
58.44843 356.823 356.8158 2.893602
58.47991 356.8324 356.8971 2.884237
58.50986 356.9257 357.0701 2.76773
58.5432 356.9959 357.3229 2.654665
58.57529 357.0055 357.487 2.480192
58.60654 356.8928 357.7981 2.044639
58.63987 357.0397 357.9088 2.034216
58.6732 357.2341 358.0598 2.094977
58.70654 357.4151 358.2136 2.05668
58.73819 357.4819 358.299 1.92198
58.77152 357.3294 358.3756 1.84381
58.80486 357.2325 358.3203 1.869319
58.83549 357.1635 358.2721 1.803839
58.86882 357.1573 358.1819 1.864754
58.89805 357.1074 358.156 1.928181
58.93138 357.1694 358.2083 1.820303
58.96022 357.2714 358.3006 1.769203
58.98905 357.3102 358.418 1.679253
59.02238 357.32 358.4676 1.562963
59.05173 357.4319 358.4668 1.488926
59.07993 357.6914 358.4251 1.450511
59.10948 357.7425 358.4015 1.447798
59.14242 357.7181 358.3776 1.481332
59.17575 357.5981 358.2729 1.524255
59.2049 357.31 358.1318 1.640918
59.23505 357.0919 357.8624 1.975733
59.26422 357.0381 357.6115 2.380778
59.2947 357.0249 357.5495 2.538046
59.32804 357.0568 357.5519 2.800915
59.35757 357.1073 357.6936 2.897899
59.3909 357.0749 357.8734 2.857858
59.41998 357.0607 358.0229 2.859157
59.45053 357.2428 358.1428 2.799426
59.48386 357.3091 358.1715 2.776924
59.5172 357.2872 358.1882 2.621159
59.54786 357.2306 358.1703 2.55121
59.57664 357.3814 357.965 2.626793
59.60701 357.5128 357.6997 2.77625
59.64034 357.5526 357.5729 2.855404
59.67027 357.4641 357.4449 2.83777
59.70037 357.3747 357.4322 2.705266
59.73103 357.383 357.432 2.534941
59.75937 357.5879 357.5427 2.49764
59.7927 357.7117 357.6032 2.53097
59.82418 357.8599 357.7729 2.535638
59.85751 357.8649 357.877 2.601501
59.89085 357.9069 357.9146 2.587203
59.92267 357.9813 357.9891 2.614554
59.956 358.1047 358.0293 2.520743
59.98908 358.1573 358.0085 2.455126
60.01872 358.0893 357.9635 2.491987
60.0479 358.1001 357.8859 2.437359
60.07686 358.2202 357.713 2.387453
60.1102 358.3619 357.5239 2.437184
60.14353 358.4131 357.3888 2.356418
60.17335 358.316 357.2539 2.318174
60.2017 358.2699 357.2146 2.266402
60.23086 358.297 357.2052 2.27219
60.26419 358.3466 357.2433 2.360348
60.29422 358.4175 357.2766 2.392873
60.32558 358.515 357.4493 2.390218
60.35892 358.5195 357.5777 2.337597
60.38739 358.576 357.627 2.26345
60.42072 358.6172 357.6145 2.237963
60.44939 358.6628 357.5526 2.262314
60.48272 358.7373 357.4922 2.264142
60.51302 358.7215 357.4336 2.198438
60.54364 358.7011 357.4602 2.197475
60.57697 358.707 357.5351 2.130795
60.6066 358.7049 357.606 2.162847
60.63993 358.7769 357.6266 2.1715
60.67326 358.7521 357.6071 2.078593
60.7028 358.7651 357.609 1.892311
60.73613 358.8385 357.6116 1.82972
60.76448 358.9373 357.6381 1.851891
60.79781 358.9828 357.7 1.874196
60.82671 359.0104 357.6496 1.875939
60.86004 358.9671 357.6356 1.891143
60.89337 358.9006 357.5713 1.908964
60.92548 358.8771 357.428 1.989861
60.9583 358.825 357.2827 2.020388
60.98917 358.8592 357.2209 2.112029
61.01872 358.8269 357.2292 2.133157
61.05206 358.8883 357.3434 2.128962
61.0809 358.902 357.4401 2.171403
61.11088 358.7865 357.6534 2.181195
61.14421 358.793 357.8518 2.168304
61.17412 358.8961 357.9627 2.201617
61.20745 358.9786 358.0041 2.229807
61.24029 358.9612 357.9498 2.196396
61.27024 358.8823 357.8593 2.122618
61.29977 358.8312 357.7959 2.094196
61.32989 358.8641 357.7842 2.086858
61.36322 358.8543 357.799 2.10554
61.39508 358.8489 357.7905 2.026167
61.42739 358.9052 357.7707 1.914044
61.45659 358.932 357.7185 1.687449
61.48717 358.9233 357.7134 1.629111
61.5205 358.9705 357.7819 1.623312
61.55384 358.9797 357.8162 1.598849
61.58346 358.9871 357.8522 1.592602
61.61363 359.01 357.858 1.530244
61.64204 358.8888 357.8543 1.449824
61.67537 358.8301 357.8234 1.460667
61.70716 358.8481 357.8477 1.365055
61.73614 358.8609 357.8294 1.35978
61.76623 358.8322 357.869 1.352767
61.79596 358.8026 357.8365 1.28053
61.82929 358.774 357.8627 1.24597
61.86009 358.847 357.927 1.223736
61.89136 358.9496 357.9502 1.265927
61.92099 358.9083 358.0675 1.160434
61.95196 358.9111 358.1703 1.058428
61.98529 358.8681 358.214 1.014208
62.01432 358.8049 358.2413 1.027439
62.04638 358.7766 358.2424 1.061127
62.07515 358.7731 358.2291 1.106307
62.10848 358.759 358.169 1.150823
62.14181 358.7073 358.1713 1.080095
62.17061 358.7363 358.1483 1.085528
62.1996 358.8118 358.1603 0.9952326
62.23118 358.8854 358.1792 1.04597
62.2627 358.9022 358.1965 1.113961
62.29604 358.949 358.1466 1.104071
62.3253 359.0759 358.1435 1.1596
62.35489 359.1372 358.197 1.122781
62.3837 359.0878 358.2425 1.020043
62.41703 359.0699 358.2877 1.05796
62.45036 359.0416 358.2927 1.019439
62.47967 359.0061 358.231 1.107124
62.50854 359.0627 358.1893 1.178414
62.54187 359.0746 358.1242 1.21275
62.5718 359.1036 358.074 1.236745
62.60514 359.1434 358.0887 1.267559
62.63321 359.193 358.0485 1.325675
62.66654 359.2749 358.0749 1.346709
62.69646 359.272 358.0089 1.398658
62.72561 359.3352 357.9889 1.445004
62.75894 359.4074 357.9384 1.512699
62.79064 359.4652 357.8619 1.608374
62.81988 359.5026 357.8784 1.818987
62.85249 359.4833 357.8907 1.894443
62.88467 359.379 357.8597 1.968779
62.918 359.301 357.7793 1.945565
62.94971 359.3504 357.7202 1.846952
62.98023 359.3693 357.5335 1.924953
63.01292 359.3555 357.4505 1.939926
63.04235 359.3211 357.3635 2.062248
63.07569 359.3377 357.2538 2.1681
63.10521 359.3061 357.1838 2.183486
63.13574 359.1537 356.9926 2.304381
63.16461 359.0326 356.8503 2.2277
63.19794 358.8878 356.7273 2.22501
63.23128 358.7361 356.6014 2.27102
63.26043 358.5413 356.5037 2.254234
63.29033 358.4372 356.489 2.227223
63.31901 358.3617 356.4697 2.230879
63.34986 358.4059 356.4818 2.200765
63.38319 358.4981 356.5288 2.18338
63.41412 358.5984 356.5774 2.149001
63.44533 358.7513 356.5099 2.100662
63.47866 358.869 356.3942 2.050393
63.5093 358.9419 356.3141 2.055658
63.54264 358.8868 356.2484 1.956872
63.57071 358.8217 356.2071 1.895981
63.60043 358.815 356.13 1.977839
63.6286 358.802 356.1267 2.011428
63.66059 358.7606 356.1611 2.023678
63.69392 358.819 356.2233 1.911183
63.72411 358.8795 356.2757 1.870882
63.75476 358.8909 356.2937 1.91925
63.78668 358.954 356.3048 1.951355
63.81973 359.003 356.2203 2.030801
63.85306 358.9906 356.1679 2.056186
63.88549 358.9493 356.1412 2.044575
63.91478 358.9357 356.1279 2.101293
63.94812 358.9 356.1441 1.986086
63.97652 358.8519 356.1522 1.972932
64.00985 358.8709 356.1861 1.966632
64.04318 358.8726 356.2243 1.899418
64.07246 358.9643 356.3203 1.891674
64.10471 358.9998 356.3813 1.833059
64.13564 359.0335 356.4524 1.773627
64.16898 359.021 356.4475 1.719531
64.20093 358.9915 356.4241 1.71901
64.23426 359.0242 356.4436 1.725525
64.26541 359.0026 356.4707 1.709138
64.29862 358.9989 356.4753 1.692365
64.33195 359.0483 356.5343 1.643557
64.3612 359.0706 356.5753 1.611475
64.39028 359.0428 356.653 1.514389
64.42004 359.0394 356.6965 1.490488
64.45338 359.0868 356.7813 1.370458
64.48672 359.1324 356.7911 1.271349
64.51962 359.1622 356.8043 1.302362
64.55296 359.1879 356.8191 1.323737
64.58629 359.1031 356.8082 1.3138
64.61903 359.1118 356.8076 1.265675
64.65237 359.0515 356.7838 1.313604
64.68529 358.9641 356.7899 1.281816
64.71621 358.9119 356.828 1.229954
64.74619 358.8829 356.8617 1.26091
64.77953 358.9137 356.877 1.220611
64.81286 358.9255 356.916 1.182917
64.84426 358.8938 356.9744 1.109619
64.8747 358.9061 357.0015 1.10488
64.90462 358.9624 357.051 1.082947
64.93796 358.9793 357.0388 1.074516
64.97129 358.9488 357.0231 1.108681
65.00323 358.9852 356.991 1.143202
65.03226 358.9818 356.9246 1.193561
65.06322 359.022 356.9137 1.261631
65.09186 359.011 356.9341 1.231356
65.12519 359.0454 356.9762 1.254779
65.15675 359.0936 357.0073 1.167655
65.1881 359.1912 356.9924 1.200524
65.22141 359.1577 356.9082 1.268181
65.25254 359.1328 356.8416 1.247946
65.28587 359.1408 356.7541 1.314614
65.31504 359.1105 356.6871 1.313259
65.34738 359.0693 356.7001 1.3558
65.38061 359.0758 356.7144 1.463045
65.41394 359.057 356.7334 1.461611
65.44727 359.0255 356.7385 1.532186
65.47807 359.0797 356.7312 1.560665
65.50926 359.0873 356.7203 1.554117
65.53864 359.119 356.6824 1.577663
65.57197 359.1596 356.6721 1.621779
65.6053 359.1675 356.6685 1.610089
65.63863 359.2127 356.648 1.631792
65.66765 359.248 356.5878 1.685449
65.69899 359.2434 356.6074 1.729886
65.73007 359.2448 356.6006 1.770519
65.76341 359.2471 356.5673 1.820452
65.79331 359.2886 356.5329 1.883284
65.82295 359.2647 356.5182 1.920745
65.85529 359.2449 356.5236 1.992845
65.88436 359.2827 356.5472 1.941785
65.91769 359.3422 356.4875 1.910349
65.94733 359.3645 356.442 1.999622
65.97757 359.3783 356.3338 2.037992
66.00654 359.4104 356.2306 2.07409
66.03728 359.4157 356.1859 2.123624
66.07061 359.3912 356.1293 2.118322
66.09889 359.4131 356.0781 2.164113
66.13223 359.3779 356.0644 2.180205
66.16506 359.4174 356.1264 2.159177
66.19618 359.3771 356.1291 2.218144
66.22952 359.3648 356.1855 2.205704
66.25997 359.4348 356.2246 2.220152
66.28934 359.4244 356.2794 2.198968
66.31848 359.4045 356.3375 2.182915
66.34782 359.3891 356.3965 2.177864
66.38116 359.3692 356.4593 2.212986
66.41278 359.3215 356.6374 2.238295
66.44411 359.1834 357.4933 2.236238
66.47369 359.1228 359.0114 2.265519
66.50676 359.0488 2.246753 2.008778
66.54009 359.3322 7.005345 2.284162
66.57163 359.5536 10.51873 2.806653
66.60497 359.2981 17.32755 3.377451
66.63628 359.2679 26.16278 4.041266
66.66523 359.171 31.07771 4.711368
66.69856 359.3346 35.42843 4.957796
66.72715 0.1101125 39.33617 5.177972
66.75719 0.8183175 42.75187 5.788614
66.79053 1.168442 43.52179 5.959055
66.81982 1.188867 43.87858 5.437277
66.85316 1.077276 44.14059 5.139109
66.88219 0.9632751 44.12963 4.881274
66.91042 0.9663337 43.95596 4.655403
66.94011 1.071005 44.10717 4.530335
66.97014 1.312954 44.15622 4.488587
67.00348 1.340652 43.89345 4.416392
67.03142 1.232031 43.6544 4.373208
67.06129 1.093874 43.46324 4.460286
67.08987 1.041845 43.35543 4.434841
67.1232 1.106718 43.24343 4.35911
67.15653 1.065021 43.14652 4.442784
67.18987 0.9201747 43.04261 4.413253
67.21844 0.8822147 42.803 4.483486
67.25031 0.9881459 42.551 4.444732
67.27882 1.066072 42.17997 4.380137
67.31215 1.185809 41.73259 4.33995
67.34548 1.382051 40.62576 4.268796
67.37541 1.597969 37.86831 4.199237
67.40373 1.739848 35.57928 4.142168
67.43707 1.59853 31.78964 3.697406
67.4704 1.393547 27.46526 2.909416
67.50247 1.197709 24.67788 2.372854
67.5358 0.9083645 19.22052 1.188156
67.56914 0.4312755 13.57832 0.2563306
67.60247 359.9081 9.263665 359.5857
67.63167 359.6744 5.800303 359.0995
67.66038 359.1653 1.560368 358.7196
67.68986 358.8064 359.5782 358.512
67.72319 358.404 357.659 358.3609
67.75652 358.2195 356.3219 358.1669
67.78986 358.0257 355.4308 358.1646
67.81908 357.854 355.5128 358.3123
67.85241 357.7926 355.7405 358.422
67.88574 357.9247 356.442 358.5143
67.91551 358.1205 357.1772 358.6086
67.94498 358.2506 357.8053 358.6903
67.97831 358.4302 358.2639 358.6909
68.00779 358.5218 358.6422 358.7427
68.04112 358.5919 358.7614 358.7388
68.07092 358.6765 358.8066 358.7732
68.09924 358.7306 358.8324 358.774
68.12996 358.7688 358.873 358.7194
68.15926 358.9482 359.1347 358.6697
68.1926 359.067 359.4632 358.6098
68.2218 359.2135 359.9625 358.6685
68.25154 359.3488 0.6004152 358.626
68.28441 359.4689 1.454072 358.5681
68.31774 359.5977 2.349436 358.5445
68.35107 359.6903 3.148987 358.5786
68.38341 359.7392 3.650559 358.509
68.41537 359.7068 3.709124 358.5828
68.4487 359.6962 3.296239 358.6909
68.47917 359.7247 2.670325 358.7278
68.5125 359.6628 2.104577 358.775
68.54369 359.4885 1.038437 358.8572
68.5739 359.4153 0.3413773 358.8994
68.6028 359.396 359.6726 358.961
68.63613 359.3839 359.08 359.1055
68.66946 359.2801 358.6126 359.2772
68.70212 359.1306 358.1104 359.3806
68.73009 358.9844 357.7328 359.4377
68.7622 358.9698 357.5139 359.5442
68.79446 358.9363 357.3232 359.6926
68.8278 358.9172 357.1618 359.8693
68.85886 358.9183 357.0807 0.02503448
68.89219 358.8783 356.8836 359.9705
68.92171 358.9221 356.7097 359.9483
68.95505 358.9573 356.5834 359.9926
68.98838 359.0318 356.4105 0.0789144
69.02036 359.0459 356.2274 0.1786885
69.0505 359.0204 356.123 0.187589
69.08383 358.9385 356.0761 0.1906867
69.11313 358.9037 356.0332 0.1985267
69.14646 358.8411 356.0344 0.1587419
69.17596 358.8493 356.0238 0.1659275
69.20642 358.8456 356.0187 0.1577435
69.23859 358.8568 356.0205 0.1478151
69.27193 358.9076 356.0007 0.1064764
69.30526 358.9495 355.9669 0.07931183
69.33541 358.9495 355.922 -0.004967319
69.36874 358.9041 355.8575 359.8846
69.39896 358.9047 355.7289 359.8434
69.43137 358.9341 355.6232 359.8418
69.4647 358.8846 355.6138 359.7974
69.49333 358.8302 355.5816 359.7647
69.52462 358.8689 355.6225 359.7297
69.55795 358.8357 355.7379 359.7351
69.58772 358.7993 355.8289 359.6729
69.62106 358.7674 355.899 359.6428
69.65112 358.814 355.8739 359.6068
69.68218 358.9705 355.8373 359.4356
69.71527 359.1272 355.84 359.4756
69.7486 359.169 355.8498 359.446
69.78194 359.227 355.8821 359.4131
69.81143 359.2605 355.8656 359.4202
69.84368 359.2906 355.8297 359.4232
69.87239 359.2182 355.8154 359.4175
69.90538 359.2133 355.8002 359.4366
69.93871 359.2906 355.8076 359.3639
69.97205 359.1683 355.8604 359.3784
70.00538 359.1054 355.8511 359.3616
70.03871 359.2921 355.9161 359.362
70.07048 359.5414 355.9223 359.3422
70.10381 359.8006 356.0058 359.2892
70.13715 0.08622167 356.079 359.247
70.16953 0.5481613 356.0011 359.1775
70.199 0.8670746 355.9776 359.2033
70.2304 1.223032 355.951 359.1923
70.26373 1.619064 355.9829 359.2122
70.29433 2.27429 356.0093 359.1265
70.32649 3.060128 356.0265 359.0404
70.35601 3.665578 355.9423 359.1073
70.38783 4.122775 355.9435 359.1956
70.42117 4.665791 355.8982 359.2849
70.45191 5.008241 355.76 359.3823
70.48493 5.470259 355.4372 359.3738
70.51649 5.556725 355.0959 359.3794
70.54692 5.52438 354.6852 359.588
70.58025 5.526373 354.4773 359.7021
70.61198 5.503596 354.1732 359.889
70.64167 5.403469 354.0604 359.9377
70.675 5.309604 354.0315 0.005647881
70.70388 5.309431 353.9612 0.1239756
70.73722 5.394632 353.9621 0.05726548
70.76636 5.572344 353.9406 359.8477
70.79969 5.87534 353.9018 359.7265
70.82978 6.462487 353.9217 359.8228
70.86311 6.609621 353.9978 359.9192
70.89645 6.380119 354.032 0.1406072
70.92657 6.215723 353.9692 0.4652094
70.95644 6.241911 353.7431 0.8123432
70.98761 6.211829 353.4509 1.086154
71.01871 5.997311 353.0247 1.396404
71.05204 5.91924 352.5534 1.647009
71.08418 6.08593 352.0244 1.852388
71.11473 6.166633 351.1695 2.089355
71.14664 6.086885 350.7486 2.243511
71.17991 6.075086 350.1048 2.346536
71.21324 6.228695 349.4107 2.396376
71.24353 6.426809 348.583 2.494961
71.27679 6.447246 347.6449 2.6626
71.30603 6.225011 346.7989 2.723828
71.33542 5.621214 345.6257 2.536715
71.36875 5.225635 344.8721 2.320873
71.40208 4.64297 343.8528 1.920584
71.43542 3.538587 342.955 1.528912
71.467 2.767314 342.6143 1.492333
71.50034 2.106997 342.6191 1.429721
71.53367 1.731171 342.8236 1.161776
71.56343 1.538989 343.1516 0.99447
71.59677 1.543929 343.64 0.8177603
71.6301 1.665384 344.0485 0.6003111
71.65854 1.956382 344.3955 0.3688071
71.69187 2.492352 344.6941 0.1171527
71.7252 2.543048 345.008 359.7429
71.7542 2.396266 345.3155 359.2657
71.7832 2.239033 345.5584 359.2819
71.81436 2.041566 345.7328 359.3335
71.84769 1.92332 345.9816 359.3293
71.88103 1.843271 346.1756 359.3692
71.9094 1.718776 346.6446 359.1821
71.94048 1.766115 347.3417 358.8684
71.97382 1.932989 347.856 358.8441
72.00715 2.164966 348.9637 358.8951
72.04048 2.21288 349.8746 358.752
72.07195 2.797492 352.3286 358.4218
72.10217 3.144329 354.7017 358.4784
72.13439 3.112031 357.2961 358.8379
72.16772 3.077901 359.5517 358.8969
72.19795 3.107704 2.446977 358.9488
72.22738 3.121418 5.532421 359.1287
72.25842 2.75455 7.50423 359.1649
72.28759 2.185162 9.477903 359.2194
72.32092 1.941813 10.63248 359.2304
72.35105 1.855085 11.23992 359.1335
72.3828 1.494514 11.53011 358.899
72.41613 1.30034 11.41421 358.815
72.44946 1.193648 11.10367 358.6516
72.4828 1.516438 10.32372 358.5887
72.51489 1.471601 9.842016 358.5558
72.54643 1.011698 8.966481 358.4618
72.57977 0.849622 8.313768 358.2951
72.61063 0.8704006 7.692795 358.314
72.64396 0.9751627 7.127609 358.4245
72.67525 0.9054078 6.657296 358.629
72.70549 0.5793578 6.308495 358.4991
72.73473 0.5136486 6.067593 358.5222
72.76575 0.464628 5.855697 358.4476
72.79908 0.07312168 5.486597 358.2811
72.82821 359.7512 5.17122 358.1766
72.85734 359.1024 4.347999 357.8951
72.88761 358.8334 3.79728 357.938
72.91663 358.5569 3.081782 358.1834
72.94996 358.2243 2.227427 358.3705
72.98329 358.1859 1.529063 358.4987
73.01452 358.4093 0.4557605 358.6112
73.04402 358.4623 359.6789 358.6657
73.07519 358.2752 358.9606 358.6924
73.10852 357.7804 358.5652 358.6051
73.13811 357.2299 358.2207 358.4261
73.16659 357.0178 358.1386 358.2589
73.19885 356.6994 358.0226 357.9431
73.23031 356.2718 357.9807 357.8932
73.26364 355.9763 357.9903 357.9873
73.29472 355.9028 358.0526 357.9644
73.32565 356.0475 358.0998 358.1013
73.35505 356.1181 358.1959 358.1992
73.38551 356.0297 358.1616 358.1842
73.41884 355.8828 358.1032 358.2289
73.44842 355.6754 358.0149 358.2809
73.47726 355.6237 357.903 358.3256
73.50668 355.5909 357.8246 358.2536
73.53632 355.5645 357.7615 358.2335
73.56966 355.5686 357.7338 358.1414
73.60299 355.7604 357.7477 358.1122
73.63418 355.948 357.8508 358.0642
73.66436 355.9009 357.9019 358.058
73.69464 355.9648 358.0281 358.0585
73.72797 355.8231 358.201 357.9376
73.76131 355.438 358.1465 357.6777
73.79003 355.5725 357.6994 357.4574
73.82243 355.619 357.5721 357.4236
73.85133 355.5916 357.4678 357.4787
73.88466 355.7179 357.4931 357.6144
73.91348 355.8098 357.6416 357.7183
73.94521 355.9013 357.7587 357.8642
73.97526 355.9945 357.853 357.9785
74.00571 356.0216 357.8471 358.0012
74.03904 356.0004 357.8859 358.0049
74.06939 356.0691 357.9395 358.076
74.09778 356.1537 358.0349 358.0528
74.12817 356.4633 358.3009 357.9066
74.15798 356.8659 358.6692 357.6467
74.19131 357.318 359.1284 357.4505
74.22186 357.6526 359.51 357.3133
74.25153 358.4985 359.7625 357.4719
74.28076 359.6426 359.9596 357.8616
74.31062 359.803 359.7304 358.0715
74.34396 359.614 359.1046 358.3867
74.37317 359.8122 358.3325 358.947
74.40199 0.08640511 357.5991 359.3644
74.43454 0.277725 356.7904 359.5006
74.46787 0.5287324 356.0036 359.8379
74.50121 0.7586898 355.3415 -0.002769003
74.53244 0.8128361 354.7791 0.1018393
74.56577 0.8205791 354.4321 0.07870255
74.59466 0.8841795 354.1636 359.9388
74.62629 1.286915 353.9521 359.9366
74.65962 1.998524 353.7259 0.05378175
74.68971 2.605049 353.5739 0.08471974
74.72294 3.164851 353.4696 359.9417
74.75291 3.224999 353.394 359.8271
74.78271 3.147346 353.3757 359.8728
74.81604 3.132765 353.417 359.8257
74.84476 2.906424 353.4245 359.6779
74.8781 2.751719 353.3228 359.6125
74.9063 2.569115 353.3012 359.5653
74.93669 2.446939 353.326 359.4819
74.97002 2.475756 353.3693 359.4722
75.00336 2.500165 353.5989 359.356
75.03252 2.768909 353.7473 359.391
75.06176 2.985413 353.8323 359.6411
75.09176 3.195516 354.0732 0.1032678
75.12509 3.175955 354.2578 0.2341635
75.15629 2.78021 354.7622 0.3547052
75.18845 2.531823 355.1778 0.4787637
75.21776 2.47196 355.586 0.4785526
75.24854 2.785233 356.0583 0.3048158
75.28188 3.039055 356.308 0.2390664
75.31084 3.221907 356.5754 0.1865538
75.33969 3.110422 356.6974 0.0583884
75.36886 3.183735 356.656 0.05457316
75.40018 3.387098 356.6191 0.06897102
75.43352 3.78902 356.5284 0.08485904
75.46207 4.397728 356.3748 0.2122386
75.49236 5.134665 356.2727 0.26099
75.5257 5.308898 356.1653 0.2013031
75.55725 4.892939 356.1003 0.3640713
75.59058 4.585367 356.1655 0.6087632
75.62119 4.484369 356.1401 0.88077
75.65009 4.146199 356.1146 1.079813
75.68079 3.867646 356.0708 1.026408
75.71333 3.602252 356.0559 0.7503396
75.74666 3.40067 356.1264 0.3597482
75.77999 3.243817 356.2343 359.9013
75.81302 3.143578 356.4772 359.5202
75.84505 3.004168 356.7863 359.1878
75.8771 2.894629 357.2127 359.0674
75.91043 2.758595 357.6575 358.9691
75.94376 2.625264 358.0332 358.9226
75.97326 2.914987 358.4402 358.946
76.00659 3.032789 358.6259 358.9139
76.03681 3.069744 358.7956 358.9312
76.07014 3.031991 358.8235 358.9787
76.09918 3.127527 358.8104 359.0898
76.13112 3.116407 358.8846 359.2106
76.16052 2.951959 358.9892 359.2597
76.19339 2.640017 359.1167 359.4523
76.22672 2.553439 359.1423 359.7302
76.25909 2.706972 359.2032 359.9427
76.28886 2.979109 359.1774 0.2771391
76.31936 3.297099 359.0766 0.5786287
76.35226 3.550652 358.9221 0.8403689
76.3856 3.849443 358.7055 1.087376
76.41399 4.252508 358.4805 1.029448
76.44453 4.574636 358.2425 0.8807933
76.47579 4.781121 358.0497 0.8709339
76.50581 4.81392 357.9425 0.8906417
76.53915 4.775692 357.8665 0.9736935
76.57069 4.676898 357.8696 0.9955741
76.59944 4.557153 357.8591 0.931578
76.63278 4.516661 357.8639 0.9230201
76.66295 4.534288 357.847 0.8266879
76.69628 4.552689 357.7694 0.7248832
76.72482 4.522189 357.7102 0.6013896
76.75505 4.505657 357.6342 0.443603
76.78686 4.437562 357.5924 0.4040363
76.8196 4.418866 357.5493 0.3607505
76.85293 4.570141 357.4908 0.3986112
76.88414 4.728352 357.4202 0.447381
76.91616 4.719062 357.342 0.4119085
76.94803 4.729661 357.2996 0.401349
76.97842 4.805188 357.3136 0.3347821
77.01175 4.841857 357.3663 0.2901469
77.04053 4.802127 357.3788 0.2616799
77.07273 4.804398 357.3961 0.3416938
77.10292 4.844165 357.3846 0.4182744
77.13343 4.863625 357.3596 0.4420521
77.16676 4.903124 357.3129 0.5003074
77.198 4.993755 357.2907 0.4527313
77.22629 5.024015 357.2346 0.3879518
77.25804 5.182028 357.142 0.5115473
77.28808 5.249733 357.0518 0.6271799
77.32141 5.243322 356.981 0.6751912
77.34962 5.167523 356.8821 0.7012502
77.37923 5.080012 356.8531 0.7651377
77.40847 4.958898 356.9151 0.646327
77.43968 4.892307 356.9702 0.5524078
77.47301 4.836718 357.1171 0.5427863
77.50241 4.931534 357.3004 0.53636
77.53217 4.881287 357.4827 0.4884925
77.5655 5.004336 357.7706 0.3237064
77.59572 5.381343 358.1796 0.2803387
77.62905 5.554994 358.501 0.2432002
77.6621 5.40969 358.7884 359.7133
77.69393 5.318817 358.907 359.6992
77.72726 5.170932 358.8159 0.0001746572
77.75786 5.01674 358.7017 0.1637885
77.79119 5.253201 358.7646 0.04945861
77.82158 5.524953 358.9645 359.8651
77.85291 6.090341 359.406 359.6405
77.88432 6.344123 359.9109 359.4612
77.91721 6.142909 0.2221128 359.401
77.95054 5.960155 0.6583545 359.3419
77.9799 6.025076 1.12125 359.2957
78.01323 5.979351 1.425933 359.2654
78.04157 5.558079 1.549281 359.1445
78.07241 5.450327 1.609816 359.0334
78.10574 5.576904 1.610452 359.0356
78.13908 5.768178 1.600298 358.992
78.1684 5.336409 1.264941 359.025
78.20174 4.557951 0.722788 358.9586
78.2338 4.614994 0.2750227 359.5875
78.26713 4.557297 359.8985 359.7537
78.29547 4.455749 359.7643 359.9238
78.32467 4.179173 359.784 0.2721936
78.35724 4.030016 359.8345 0.206857
78.38856 4.12781 359.8538 0.07117154
78.4219 4.02838 359.9287 359.9345
78.45358 3.696338 359.9574 359.8012
78.4861 3.320154 359.9222 359.9015
78.51935 3.385294 359.8038 359.8904
78.55268 3.306302 359.654 359.7656
78.58601 3.566188 359.3285 359.5476
78.61653 3.337729 359.0408 359.488
78.64558 2.937318 358.7237 359.1595
78.67486 2.874505 358.4859 358.9016
78.70597 2.427971 358.6037 358.718
78.7393 2.16849 358.964 359.0186
78.77264 2.011483 359.4709 359.1333
78.80408 1.003997 359.6698 358.8631
78.83741 0.831115 359.8065 358.8645
78.86813 1.008016 359.9071 358.3961
78.90147 0.7540822 359.8508 358.0649
78.93481 0.2480751 359.7643 357.9612
78.96814 -0.001834732 359.648 358.0992
78.99677 0.235974 359.6927 357.9575
79.02914 0.2701179 359.6727 357.8863
79.06248 0.2154784 359.5888 358.1329
79.09519 0.3260729 359.6047 358.2724
79.12524 0.1454068 359.8213 358.1675
79.15682 0.0227137 359.9297 358.1702
79.18553 0.2275686 359.9138 358.2349
79.21886 0.4038304 359.8218 358.1931
79.24883 0.3019368 359.6495 358.3281
79.2793 359.8574 359.6108 358.6318
79.31106 359.8362 359.7061 358.8698
79.34232 0.2120623 359.793 358.8576
79.37565 0.01568217 359.9577 358.8746
79.4072 0.03898648 359.9734 358.9267
79.43661 0.7031744 359.8691 358.9085
79.46692 1.096762 359.7903 358.8139
79.4994 1.185511 359.5334 358.771
79.53273 1.849027 359.1845 359.0148
79.56157 2.478975 359.0645 359.3142
79.59281 2.743827 358.9662 359.1106
79.62264 3.383792 359.0722 359.0116
79.65275 3.717322 359.1797 359.0647
79.68608 3.638512 359.2151 359.1293
79.71682 3.459347 358.9494 358.9411
79.75015 4.259668 358.4521 358.7022
79.78349 5.30225 357.7139 358.6133
79.81416 5.181889 357.0213 358.2714
79.8475 5.013382 356.332 358.2663
79.88026 4.959933 355.2359 358.528
79.91233 4.601369 354.0739 358.7318
79.94566 4.099264 353.5443 358.9873
79.979 3.403876 353.1424 359.2925
80.01233 2.776277 352.8839 359.2495
80.04461 2.207114 352.7863 359.2154
80.07484 1.381791 352.6685 359.3429
80.10506 359.9163 352.5917 359.647
80.1369 357.8904 352.6427 0.09226731
80.17023 356.7154 352.6635 0.147234
80.19917 356.554 352.7288 359.9809
80.2292 357.0048 352.93 359.7158
80.25797 357.2858 353.0939 359.4739
80.29131 357.6009 353.42 359.1595
80.32464 357.8463 353.7747 359.1101
80.35706 357.7163 354.0869 359.4444
80.38629 357.8768 354.4202 359.6528
80.41717 358.4378 354.767 359.6632
80.449 358.6249 355.0164 359.8809
80.48233 358.4581 355.1183 0.09746301
80.51237 358.3257 355.0831 0.2109028
80.54511 358.6313 354.9597 0.0590435
80.57436 359.1029 354.7708 359.9867
80.60678 359.2956 354.6516 359.9829
80.64011 359.4642 354.4582 359.8502
80.67188 359.6664 354.2409 359.4435
80.70137 359.6741 353.8528 359.6959
80.73117 359.6305 353.4583 0.1458558
80.75999 359.524 353.3719 0.1738197
80.79332 359.4851 353.4692 359.9064
80.82215 359.5595 353.6735 359.7406
80.85193 359.5727 353.8734 359.7754
80.88055 359.5012 354.1401 359.7426
80.91224 359.4567 354.3967 359.7168
80.94557 359.4855 354.5603 359.7205
80.97565 359.4764 354.7628 359.7504
81.00509 359.5597 354.9711 359.7191
81.03842 359.6942 355.0667 359.6985
81.07175 359.8049 355.0952 359.8151
81.10509 359.8589 355.1201 359.7818
81.13343 359.8401 355.1322 359.7567
81.16676 359.9313 355.1758 359.638
81.19798 0.07164022 355.2113 359.5075
81.22888 0.1936024 355.3045 359.4662
81.26221 0.1507421 355.3329 359.3686
81.29512 0.1427857 355.5295 359.2621
81.32509 0.152523 355.7475 359.2175
81.3557 0.08128072 355.9434 359.1561
81.38658 359.9151 356.1852 359.0288
81.41991 359.7965 356.4718 358.9285
81.45325 359.6805 356.8553 358.529
81.48334 359.56 358.0651 357.3614
81.51238 359.4249 359.963 356.7253
81.54335 359.2914 1.213627 356.6531
81.57668 359.1956 2.536186 356.559
81.60904 359.1205 3.720221 356.5652
81.63736 359.1394 4.474982 356.7551
81.66755 359.2684 4.756269 356.9734
81.69637 359.5488 4.655989 357.0806
81.72971 359.7908 4.394387 357.0959
81.76157 0.005756069 3.814353 356.9887
81.79436 0.009828156 3.069829 356.8896
81.82302 359.9077 2.424518 356.7115
81.85635 359.9862 1.904215 356.6921
81.88969 0.1254963 1.495312 356.8769
81.92303 0.126278 1.222627 356.9854
81.95636 0.2606901 0.8858342 357.16
81.98743 0.3390204 0.7600306 357.1896
82.02076 0.4322762 0.6896316 357.3284
82.05409 0.4372302 0.7489316 357.3457
82.08508 0.4476186 0.8632589 357.4268
82.11841 0.5331717 0.999836 357.5358
82.15174 0.6684586 1.134024 357.6362
82.1823 0.8337821 1.244045 357.6823
82.21564 0.9158837 1.327065 357.6807
82.24897 1.037124 1.29627 357.7648
82.27836 1.123659 1.171084 357.8482
82.30826 1.0993 1.037735 357.9015
82.33907 1.061204 0.9162794 357.9258
82.3724 1.10346 0.7348731 358.0205
82.40058 1.081013 0.6527233 358.1917
82.43105 1.097965 0.5683528 358.2948
82.46033 1.159691 0.5270102 358.3237
82.49286 1.19043 0.4477813 358.325
82.52619 1.337386 0.3578402 358.4408
82.55953 1.548967 0.1760186 358.615
82.5882 1.643429 359.994 358.8077
82.62153 1.768456 359.9208 358.9454
82.65016 2.020746 359.7974 359.1355
82.68349 2.165873 359.7598 359.2664
82.71683 2.411734 359.7422 359.3476
82.75016 2.8231 359.8156 359.4375
82.77951 3.258155 359.8982 359.5338
82.81284 3.596941 359.9467 359.5427
82.84618 3.813921 359.9741 359.4463
82.87683 4.105268 359.9584 359.3208
82.91016 4.206701 359.9085 359.2333
82.94124 4.267423 359.8638 359.2043
82.97114 4.30506 359.7957 359.1753
83.00447 4.411916 359.6653 359.2552
83.03388 4.528459 359.548 359.3893
83.06509 4.541821 359.3829 359.5641
83.09358 4.588438 359.2923 359.6498
83.12575 4.609793 359.264 359.644
83.15908 4.800894 359.2924 359.7058
83.18909 5.080155 359.366 359.8482
83.21997 5.318567 359.5077 0.0699951
83.2521 5.505644 359.638 0.1921939
83.28253 5.72148 359.801 0.2901871
83.31586 5.848773 359.9613 0.3251741
83.34472 6.004656 0.133622 0.4448697
83.37449 5.846067 0.2951274 0.5109504
83.40407 5.722503 0.3251268 0.5166391
83.43509 5.457557 0.1158483 0.4702632
83.46842 5.213476 359.8571 0.5318414
83.49882 5.123724 359.4868 0.6224388
83.52802 5.358591 358.8596 0.4170796
83.55843 5.379768 358.4601 0.3997843
83.5878 5.336229 358.0137 0.3087197
83.62113 5.375848 357.7502 0.1730471
83.65042 5.34358 357.4158 359.936
83.68111 5.190917 357.0388 359.7498
83.71444 5.102799 356.8715 359.6147
83.74777 4.961581 356.5459 359.4104
83.78111 4.699076 356.3117 359.2903
83.811 4.559316 356.1519 359.1902
83.84099 4.252069 355.9315 358.8798
83.87432 4.129392 355.7897 358.7194
83.90736 3.973154 355.7184 358.6042
83.94069 3.827841 355.6721 358.5896
83.97292 3.766154 355.6813 358.6184
84.00275 3.69451 355.8249 358.6826
84.03128 3.682899 355.9505 358.786
84.06462 3.644555 356.1227 358.8247
84.09795 3.661508 356.2764 358.9119
84.12943 3.66245 356.3112 359.014
84.15916 3.713836 356.282 358.9896
84.18888 3.726569 356.2502 358.9466
84.22221 3.737579 356.1545 358.8837
84.25555 3.716168 356.0971 358.9258
84.28407 3.800243 356.0381 358.9803
84.31667 3.9276 355.9585 358.9619
84.34502 4.049112 355.9002 358.9922
84.37562 4.1527 355.897 358.9793
84.40895 4.301938 355.984 358.9756
84.44136 4.327543 356.059 358.9399
84.47083 4.144073 356.1934 358.9887
84.50417 3.974742 356.2797 358.9902
84.5375 3.851906 356.3886 358.9619
84.57083 3.882302 356.4688 359.0702
84.60088 3.779663 356.513 359.0705
84.63081 3.743585 356.4719 359.0746
84.66212 3.646827 356.4259 359.0572
84.69476 3.557095 356.4112 359.0572
84.72809 3.384698 356.4499 359.1079
84.76073 3.257612 356.4686 359.0999
84.79031 3.148641 356.5333 359.2121
84.82364 3.146963 356.5056 359.2104
84.85626 3.197122 356.5458 359.1228
84.8896 3.193112 356.5788 359.0584
84.91824 3.150652 356.588 358.9837
84.9509 3.135897 356.5838 358.9564
84.98109 3.113129 356.6354 358.976
85.01143 2.989876 356.6274 359.042
85.04476 2.948147 356.6619 359.0732
85.07611 2.950542 356.6492 359.1032
85.10718 3.066149 356.614 359.0963
85.13821 3.11937 356.6198 359.066
85.16683 3.078799 356.7285 358.9903
85.20016 3.097412 356.7647 359.0354
85.22944 3.173327 356.825 359.144
85.26277 3.202521 356.8149 359.239
85.2925 3.342058 356.8018 359.3311
85.32327 3.407305 356.8074 359.3233
85.3566 3.421762 356.7997 359.3422
85.38795 3.40897 356.7728 359.36
85.41778 3.390054 356.7485 359.3343
85.45111 3.289658 356.7252 359.4341
85.48444 3.254382 356.6913 359.4911
85.51778 3.246462 356.6538 359.4861
85.55111 3.236307 356.6245 359.4838
85.58445 3.243999 356.6161 359.4521
85.61332 3.254248 356.6371 359.4792
85.64666 3.250259 356.6506 359.5456
85.67999 3.185821 356.6497 359.5672
85.71096 3.151066 356.5981 359.5712
85.74039 3.09757 356.5677 359.5967
85.76976 3.06646 356.5567 359.6359
85.79945 3.040935 356.521 359.6654
85.83278 3.037083 356.492 359.6928
85.86298 3.011824 356.4794 359.6005
85.89278 3.021252 356.4871 359.5076
85.92152 3.077756 356.4911 359.571
85.95177 3.061001 356.4664 359.6152
85.98511 3.042824 356.5106 359.7078
86.01511 2.991914 356.4992 359.7255
86.04532 2.979501 356.4442 359.7177
86.07542 2.899675 356.3847 359.7381
86.10664 2.814875 356.3762 359.693
86.13997 2.824798 356.379 359.6621
86.16995 2.884542 356.4121 359.7072
86.20061 2.939751 356.4773 359.6566
86.23264 2.957281 356.5048 359.6242
86.26598 3.009045 356.5188 359.6057
86.29931 3.013457 356.5179 359.5862
86.32956 2.997922 356.5307 359.5852
86.36105 3.061672 356.4813 359.6002
86.39385 3.10014 356.4275 359.6357
86.42548 3.111254 356.4247 359.5919
86.45881 3.197017 356.454 359.5334
86.48783 3.282118 356.4669 359.5266
86.52116 3.263251 356.505 359.5366
86.55039 3.187521 356.5289 359.5212
86.58022 3.218696 356.5046 359.4552
86.61355 3.189005 356.5345 359.3121
86.64688 3.196492 356.5006 359.3188
86.67955 3.279101 356.5372 359.3989
86.71288 3.259649 356.5246 359.4887
86.74173 3.244246 356.5258 359.5276
86.77506 3.283233 356.4721 359.4866
86.80556 3.316588 356.4649 359.4785
86.83855 3.243967 356.4547 359.418
86.87069 3.184706 356.4404 359.3958
86.90222 3.224887 356.4561 359.4212
86.93555 3.278127 356.5108 359.3817
86.96823 3.3156 356.5309 359.3423
87.00156 3.312671 356.5481 359.2647
87.03341 3.329084 356.5443 359.2434
87.0638 3.365601 356.542 359.2261
87.09714 3.365241 356.5254 359.238
87.12845 3.33924 356.5238 359.3079
87.16171 3.345342 356.4667 359.3266
87.19504 3.472659 356.4224 359.2921
87.22837 3.628 356.4453 359.2534
87.2617 3.696058 356.5022 359.2682
87.29319 3.67632 356.5777 359.2015
87.32201 3.59943 356.645 359.1786
87.35225 3.601222 356.6819 359.0935
87.38253 3.559237 356.667 358.9711
87.41586 3.70436 356.6877 359.0904
87.44589 3.79442 356.6414 359.1453
87.47821 3.821627 356.5982 359.2101
87.51057 3.82189 356.5562 359.2252
87.54053 3.750854 356.5574 359.2226
87.57387 3.705141 356.5248 359.2931
87.60591 3.56632 356.5209 359.2032
87.63841 3.466196 356.5214 359.21
87.66842 3.522915 356.5289 359.2512
87.69926 3.636947 356.5995 359.1716
87.7326 3.736578 356.5931 359.1187
87.76593 3.739787 356.6454 359.0798
87.79761 3.658659 356.6929 359.0401
87.83094 3.641568 356.6882 359.0649
87.8613 3.618066 356.6722 359.1088
87.89463 3.569252 356.6431 359.1478
87.92439 3.606887 356.5493 359.2129
87.9535 3.753082 356.4308 359.2114
87.98618 3.811377 356.3754 359.257
88.01952 3.733129 356.3835 359.2943
88.05285 3.609316 356.4098 359.2921
88.08618 3.571511 356.4676 359.1783
88.11623 3.646109 356.5377 359.1478
88.1447 3.744523 356.5354 359.2112
88.17803 3.801556 356.515 359.2696
88.21136 3.811682 356.4264 359.3443
88.24316 3.752942 356.3748 359.3554
88.27573 3.605922 356.2934 359.3712
88.30635 3.51803 356.2437 359.4492
88.33611 3.537057 356.2086 359.3948
88.36945 3.492418 356.2064 359.418
88.40278 3.536884 356.2266 359.4367
88.43611 3.597937 356.2976 359.3248
88.4652 3.568518 356.3865 359.2659
88.49492 3.509779 356.403 359.2258
88.52825 3.527938 356.4432 359.2117
88.56071 3.489388 356.4471 359.2057
88.59098 3.485531 356.4651 359.2441
88.62094 3.506653 356.4754 359.2695
88.65131 3.543152 356.4496 359.252
88.68465 3.543268 356.4433 359.2526
88.71333 3.536549 356.4344 359.2406
88.74493 3.508033 356.4367 359.2174
88.77548 3.489727 356.4839 359.2493
88.80654 3.420822 356.5333 359.215
88.83987 3.348874 356.552 359.1472
88.87143 3.293053 356.5667 359.0183
88.90121 3.316997 356.6053 358.9166
88.93195 3.364031 356.6308 358.9433
88.96201 3.349047 356.6841 358.9925
88.99535 3.289594 356.741 359.0472
89.02431 3.324287 356.726 359.038
89.05457 3.313272 356.6706 359.002
89.08588 3.294974 356.6777 359.051
89.1162 3.163388 356.6765 358.9702
89.14954 3.09476 356.7569 358.945
89.1819 3.036322 356.8253 358.9943
89.21217 3.08845 356.8384 358.9299
89.24171 3.164431 356.802 358.8747
89.27119 3.259158 356.7833 358.8441
89.30453 3.338184 356.7843 358.8181
89.3362 3.329502 356.818 358.8016
89.36953 3.242217 356.8773 358.8836
89.40286 3.201144 356.8829 358.9329
89.43502 3.212907 356.8645 358.9576
89.46835 3.248881 356.8291 358.9694
89.50095 3.252611 356.7779 358.9069
89.53098 3.31469 356.6522 358.9476
89.56103 3.302009 356.5901 359.0163
89.59228 3.342449 356.4012 359.071
89.62561 3.345002 356.2821 359.0315
89.65409 3.254369 356.2323 358.932
89.68742 3.307054 356.2091 358.9547
89.72076 3.402319 356.2472 359.097
89.75315 3.484389 356.3108 359.2053
89.78649 3.527116 356.3574 359.2224
89.81982 3.477623 356.3257 359.1955
89.85147 3.392385 356.2765 359.2973
89.88156 3.169435 356.2579 359.2443
89.91175 2.926646 356.2629 359.2224
89.94508 2.742885 356.2292 359.3286
89.97428 2.627426 356.2173 359.3513
90.00761 2.598878 356.2127 359.2616
90.0381 2.546468 356.1896 359.206
90.06805 2.565186 356.1993 359.1758
90.10139 2.560928 356.1632 359.1461
90.13472 2.52828 356.1931 359.1422
90.16379 2.503409 356.2093 359.1429
90.19565 2.500442 356.2155 359.1537
90.22453 2.447619 356.1866 359.151
90.25786 2.443766 356.1943 359.1906
90.28638 2.530299 356.2248 359.2067
90.31729 2.617061 356.3203 359.2461
90.34799 2.623876 356.4062 359.2883
90.38132 2.646382 356.4076 359.3859
90.41466 2.656425 356.4005 359.3022
90.44399 2.705559 356.3494 359.2768
90.47245 2.848956 356.2469 359.3316
90.50495 2.953588 356.2227 359.3125
90.53728 3.042657 356.2094 359.2995
90.57062 3.04218 356.2242 359.2545
90.60019 2.907116 356.2566 359.1954
90.63352 2.738555 356.2837 359.1494
90.66685 2.625095 356.2991 359.0635
90.6993 2.56989 356.3487 359.0606
90.73263 2.546204 356.3592 359.0891
90.76485 2.617833 356.3859 359.0652
90.79384 2.702162 356.4124 359.0194
90.82432 2.681286 356.4234 358.9668
90.85716 2.613907 356.5077 358.9145
90.8905 2.619447 356.5604 358.8518
90.91941 2.622944 356.6566 358.8287
90.95274 2.535299 356.7292 358.7501
90.98568 2.498859 356.8018 358.7767
91.01704 2.490799 356.8988 358.8212
91.05038 2.475002 356.9205 358.8902
91.08017 2.421366 356.8889 358.9337
91.11196 2.419502 356.7675 358.9341
91.14352 2.374891 356.7822 358.8114
91.17661 2.427202 356.7094 358.7118
91.20995 2.505312 356.6601 358.6775
91.24054 2.593231 356.6235 358.6075
91.27233 2.605603 356.5376 358.5493
91.30261 2.572452 356.519 358.4643
91.33315 2.531419 356.5607 358.4464
91.36648 2.447315 356.6512 358.4959
91.39853 2.388707 356.6873 358.4816
91.42753 2.288894 356.7263 358.4899
91.45834 2.305132 356.683 358.4876
91.48977 2.338346 356.6109 358.4737
91.5231 2.363507 356.6273 358.4848
91.55165 2.308896 356.5964 358.4879
91.58356 2.251955 356.5526 358.5158
91.61285 2.242265 356.4747 358.5395
91.64259 2.211331 356.4484 358.5649
91.67592 2.204509 356.4038 358.6025
91.70521 2.174073 356.3414 358.678
91.73637 2.145199 356.3598 358.7088
91.76869 2.08329 356.4088 358.7337
91.79685 2.045233 356.4666 358.8104
91.83018 1.961534 356.5056 358.8106
91.86008 1.947935 356.4942 358.7863
91.89341 1.922592 356.4376 358.6801
91.92674 1.884336 356.3463 358.5967
91.95935 1.95751 356.3528 358.6467
91.99268 1.93293 356.3618 358.7112
92.02317 1.917448 356.3986 358.7527
92.05538 1.836752 356.4076 358.739
92.08694 1.775995 356.3586 358.6963
92.11574 1.71462 356.3357 358.7021
92.14907 1.680629 356.3423 358.6714
92.17841 1.645277 356.3348 358.6906
92.21175 1.655114 356.3733 358.7327
92.24007 1.722229 356.3938 358.6953
92.27307 1.759774 356.3661 358.6521
92.3064 1.84014 356.3334 358.6008
92.33722 1.880244 356.3351 358.584
92.36761 1.893336 356.3841 358.6104
92.39745 1.840221 356.3936 358.6618
92.42651 1.803783 356.3968 358.6573
92.45985 1.776428 356.3176 358.7116
92.49318 1.772139 356.2807 358.7052
92.52651 1.758242 356.2353 358.7088
92.55767 1.711996 356.2112 358.7896
92.58848 1.677102 356.1637 358.7847
92.62181 1.657142 356.1407 358.8477
92.65199 1.634152 356.1154 358.807
92.68162 1.58536 356.0791 358.8647
92.71204 1.568381 356.0387 358.9615
92.74159 1.479961 355.9722 359.0142
92.77493 1.393903 355.948 359.112
92.80415 1.306431 355.9303 359.1591
92.83591 1.012047 355.8177 359.2285
92.86467 0.6074768 355.6941 359.3217
92.89661 0.2590057 355.6061 359.309
92.92995 359.751 355.4725 359.4555
92.95855 359.2475 355.2457 359.6789
92.9866 358.3421 354.8647 359.787
93.01992 357.2599 354.4047 359.9129
93.04988 356.1435 353.8857 0.04278714
93.08321 355.1451 353.4844 0.1533603
93.11294 353.8297 352.8109 0.3333142
93.14264 351.9998 351.9331 0.5988103
93.17159 351.0588 351.5318 0.7078711
93.20492 349.7498 351.0577 0.888078
93.23825 348.5203 350.9134 0.8905112
93.26881 347.497 351.0623 0.9060679
93.29847 346.165 351.4549 1.082167
93.3318 345.361 351.6681 1.204623
93.36514 344.3935 352.0518 1.325727
93.39847 343.7508 352.4957 1.360505
93.42721 343.5285 352.7539 1.38315
93.46054 343.4504 353.0404 1.50619
93.49228 343.5305 353.2265 1.563834
93.52431 343.9337 353.2794 1.733481
93.55764 344.2501 353.2709 1.759402
93.59074 344.4737 353.2961 1.695187
93.62104 344.6761 353.1301 1.649026
93.6534 344.746 353.0455 1.639941
93.68264 344.9734 352.9454 1.65792
93.71597 345.1141 352.9143 1.621328
93.7458 345.2688 352.8579 1.59849
93.77509 345.5798 352.8794 1.478017
93.80714 345.928 352.9813 1.318154
93.83749 346.2864 353.0654 1.128199
93.87083 346.5712 353.2473 0.9329795
93.90295 346.6599 353.347 0.8693815
93.93238 346.975 353.5644 0.7534763
93.96564 347.0603 353.705 0.6620345
93.99542 347.1258 353.8249 0.6357151
94.02876 347.21 353.9567 0.6045647
94.05832 347.2962 354.0007 0.6310329
94.08916 347.2852 354.0021 0.702105
94.11813 347.0258 353.9529 0.6079972
94.15139 346.9486 353.8844 0.5146581
94.18472 347.0942 353.8127 0.468509
94.21402 347.2812 353.7717 0.4713484
94.24735 347.3626 353.7934 0.4993634
94.27797 347.3063 353.8806 0.578862
94.30824 347.2099 353.8911 0.6612171
94.34158 347.174 353.9459 0.7082152
94.37071 347.1861 353.9568 0.6696774
94.40232 347.1799 353.9626 0.5817118
94.43051 347.3177 353.9917 0.5632481
94.46354 347.5079 354.0478 0.5378407
94.49687 347.6954 354.0658 0.5622261
94.52728 347.7873 354.0992 0.5808493
94.55788 347.9639 354.1245 0.5394198
94.58794 348.014 354.1359 0.5181051
94.61777 348.0861 354.1479 0.4730051
94.65111 348.121 354.2031 0.5002137
94.6823 348.1659 354.2486 0.5416815
94.71563 348.2772 354.3061 0.5509487
94.74444 348.4364 354.3403 0.5878275
94.77643 348.5643 354.4062 0.5144209
94.80976 348.679 354.4779 0.46601
94.84138 348.7725 354.5481 0.4216759
94.87132 348.9187 354.6348 0.3659572
94.90257 349.0284 354.718 0.216566
94.93119 349.239 354.775 0.2323923
94.96452 349.3563 354.7773 0.236762
94.99786 349.5249 354.8618 0.1702518
95.03119 349.7012 354.9554 0.1305541
95.06009 349.8154 355.0799 0.0234627
95.09093 349.9078 355.1598 0.007976754
95.12427 349.9571 355.3019 0.02578881
95.15417 349.9344 355.4596 359.944
95.18562 349.9432 355.556 359.9739
95.21764 350.0175 355.6649 0.07355534
95.2479 350.0738 355.7462 0.07780927
95.28123 350.1294 355.83 0.05070581
95.31355 350.2517 356.0037 359.9943
95.34688 350.3277 356.162 -0.005548277
95.37578 350.3905 356.3304 359.9875
95.40833 350.4296 356.528 359.9249
95.44166 350.4749 356.7083 359.9063
95.47213 350.5509 356.8617 359.9374
95.50136 350.6093 357.0281 0.008052843
95.53469 350.6441 357.2003 0.03470676
95.56802 350.7273 357.4031 0.08929732
95.60136 350.7403 357.669 359.9381
95.63412 350.8949 357.8093 359.8314
95.66453 351.0961 357.8564 359.9117
95.69786 351.1086 357.8362 0.01287257
95.72882 351.1685 357.7006 0.06840038
95.76215 351.2582 357.5358 0.06330699
95.79254 351.4147 357.3745 0.03769618
95.8246 351.4857 357.1937 0.07332684
95.85532 351.5214 357.074 359.8868
95.88865 351.582 356.9906 359.7143
95.92198 351.7149 356.9059 359.752
95.95432 351.7971 356.883 359.8555
95.98396 351.9022 356.8946 0.1348875
96.01346 351.9804 356.9877 0.1204983
96.04353 352.0723 357.0527 0.08008163
96.07687 352.1607 357.1414 0.02969651
96.10603 352.2195 357.199 359.9629
96.13905 352.2999 357.1728 359.9082
96.17127 352.3422 357.1632 359.9625
96.20427 352.4103 357.0724 0.01407497
96.2376 352.4873 357.0426 359.9468
96.27061 352.5285 356.9965 359.9789
96.30394 352.5592 356.9602 359.9511
96.33315 352.5682 356.95 359.955
96.36293 352.5611 356.9283 359.9119
96.39626 352.604 356.9404 359.8228
96.4296 352.6953 356.99 359.7477
96.46201 352.7215 357.0695 359.7914
96.49224 352.7463 357.1137 359.753
96.52557 352.7701 357.1508 359.7339
96.55891 352.7426 357.1982 359.6708
96.5873 352.6868 357.1833 359.6656
96.61873 352.6211 357.1809 359.5535
96.65206 352.5337 357.151 359.5402
96.68193 352.4688 357.1285 359.5689
96.71526 352.4833 357.1411 359.5776
96.7486 352.5367 357.0589 359.6378
96.78194 352.6067 357.0206 359.7052
96.81527 352.618 356.9769 359.73
96.8486 352.6562 356.9538 359.7871
96.88194 352.7032 356.9519 359.8882
96.91051 352.7378 356.8922 359.9831
96.94047 352.775 356.8384 0.03666781
96.97066 352.8466 356.7563 0.1174709
97.00108 352.963 356.656 0.2142729
97.03442 353.0745 356.5799 0.2908248
97.06666 353.148 356.4797 0.3986945
97.09486 353.2492 356.4336 0.4581296
97.12547 353.2971 356.4352 0.4493861
97.155 353.3155 356.441 0.3552705
97.18833 353.3151 356.4875 0.2913036
97.21819 353.4717 356.4483 0.4624396
97.24857 353.5623 356.4456 0.5569657
97.27824 353.6623 356.3845 0.7232181
97.3106 353.7916 356.3228 0.6762432
97.34393 353.9151 356.2198 0.7248196
97.37337 354.0206 356.1502 0.8059087
97.40363 354.0458 356.1419 0.7543761
97.433 354.1178 356.1431 0.7970505
97.46613 354.0692 356.1771 0.8002892
97.49947 354.0744 356.2769 0.6756451
97.53084 354.0929 356.3468 0.6095467
97.56104 354.1354 356.5124 0.4911219
97.58981 354.1846 356.5172 0.4883011
97.62084 354.192 356.5188 0.4571434
97.65417 354.1624 356.5138 0.4703397
97.68414 354.1154 356.4445 0.5119057
97.71449 354.0448 356.3579 0.5275325
97.74783 354.0191 356.303 0.570796
97.77964 354.0428 356.284 0.6379776
97.81297 353.9912 356.2379 0.7448561
97.84469 353.9476 356.2567 0.8077754
97.87456 353.9355 356.2654 0.8607956
97.90342 353.9486 356.2992 0.7576181
97.93542 353.9703 356.3055 0.6911528
97.96875 354.1369 356.3168 0.7272914
97.9996 354.2121 356.2985 0.7733163
98.03294 354.2001 356.2409 0.8766983
98.06384 354.1313 356.1678 0.881869
98.09548 354.0755 356.0996 0.874838
98.12881 353.9814 356.0468 0.9012383
98.15995 353.9654 355.9931 0.8915499
98.18921 353.9036 355.9381 0.9616884
98.21809 353.8902 355.9221 1.048349
98.25142 353.8968 355.9091 1.061311
98.28475 353.8596 355.8543 1.071446
98.31476 353.8778 355.824 1.04628
98.34574 353.8832 355.8005 1.048513
98.37757 353.9236 355.787 1.087266
98.40904 353.9432 355.7804 1.122295
98.44238 353.9854 355.6948 1.149544
98.47235 354.0129 355.6515 1.134956
98.50568 354.0158 355.6032 1.075029
98.53608 354.0871 355.5733 1.044915
98.56941 354.1049 355.6148 1.042025
98.60275 354.136 355.6167 1.027117
98.63523 354.1273 355.6376 1.034103
98.66553 354.1254 355.6438 0.9559062
98.69749 354.1357 355.6382 0.8868334
98.72624 354.2276 355.5957 0.9686087
98.75957 354.3024 355.5516 1.016223
98.79291 354.3173 355.5289 1.098981
98.82336 354.3242 355.498 1.06248
98.85365 354.3157 355.5058 1.030177
98.88446 354.3094 355.4534 1.085582
98.91779 354.223 355.471 1.006658
98.95014 354.1659 355.5086 0.9200493
98.98145 354.1018 355.5016 0.8988211
99.01478 354.1043 355.5041 0.8338693
99.04378 354.1018 355.5078 0.7735767
99.07711 354.132 355.4884 0.7069767
99.10659 354.2149 355.5294 0.6652097
99.13992 354.2213 355.563 0.6494397
99.16867 354.2345 355.5522 0.6671957
99.202 354.3027 355.5572 0.654539
99.23534 354.3559 355.4802 0.638277
99.26867 354.3949 355.4124 0.5912165
99.302 354.4133 355.412 0.5449663
99.33175 354.5004 355.3726 0.533976
99.36084 354.5981 355.3261 0.6432015
99.39417 354.5975 355.3035 0.69034
99.42339 354.6521 355.2952 0.73474
99.45673 354.6904 355.2574 0.7019325
99.48972 354.7499 355.2295 0.6795875
99.52023 354.84 355.1525 0.7222526
99.55357 354.9447 355.1183 0.8049046
99.58551 354.95 355.0217 0.8564378
99.61729 354.8938 354.9528 0.8056296
99.64873 354.8953 354.8919 0.7432976
99.68206 354.8562 354.8401 0.7077348
99.71539 354.8127 354.8222 0.5818235
99.74697 354.8444 354.7883 0.6565515
99.77743 355.0041 354.7812 0.7881023
99.81076 355.0887 354.8238 0.7117776
99.84132 355.1654 354.9007 0.7093002
99.87466 355.293 354.9508 0.699463
99.90659 355.3253 354.9847 0.6853344
99.93992 355.3544 355.0085 0.6493566
99.97325 355.3335 355.0188 0.6530699
100.0018 355.276 354.9784 0.6620835
100.0351 355.2993 355.0045 0.6534678
100.066 355.3515 354.968 0.7319472
100.0962 355.3847 354.9525 0.7272627
100.1274 355.4209 354.9223 0.7694587
100.1603 355.3217 354.942 0.7668644
100.1937 355.3035 354.9559 0.7655588
100.2268 355.1908 355.003 0.6757659
100.2599 355.1408 355.011 0.6937535
100.2918 355.2294 354.9801 0.7492936
100.3231 355.2551 354.9808 0.7275234
100.3564 355.3442 354.9587 0.7324029
100.3881 355.3371 354.9144 0.7336531
100.4212 355.3153 354.9088 0.7104501
100.4505 355.2919 354.884 0.7993152
100.4809 355.2299 354.9165 0.7656063
100.5142 355.1301 354.8735 0.7826754
100.5463 355.1422 354.9129 0.8135248
100.5757 355.2219 354.8474 0.7650201
100.6057 355.2549 354.8266 0.6803383
100.6362 355.2759 354.8412 0.5982871
100.6695 355.3318 354.8546 0.6085914
100.698 355.4477 354.9017 0.6510285
100.7313 355.4792 354.8944 0.7139267
100.7605 355.5138 354.8809 0.742879
100.7939 355.5384 354.793 0.7428496
100.8272 355.5604 354.7541 0.7490007
100.8605 355.5843 354.7123 0.7759269
100.889 355.588 354.7488 0.7602206
100.9185 355.5971 354.769 0.8292933
100.9519 355.6129 354.8182 0.7385817
100.9852 355.6421 354.8252 0.6410943
101.0185 355.734 354.808 0.6838526
101.0505 355.8541 354.8402 0.6841508
101.0838 355.8492 354.8455 0.7102553
101.1171 355.8268 354.7643 0.7033429
101.1505 355.8798 354.7123 0.6743675
101.1813 355.8843 354.7049 0.6733813
101.2146 355.8083 354.7076 0.556128
101.2467 355.8008 354.7317 0.5978065
101.2756 355.8157 354.7873 0.603071
101.3089 355.846 354.8329 0.5303071
101.338 355.8968 354.885 0.4929355
101.3675 355.8962 354.9246 0.4811054
101.3984 355.9009 354.9204 0.4282347
101.431 355.9021 354.9121 0.4063625
101.4644 355.9396 354.8681 0.4284222
101.4953 355.8947 354.8413 0.4709987
101.5287 355.8636 354.8062 0.4737943
101.5609 355.8572 354.7761 0.443373
101.5943 355.8703 354.8409 0.4037299
101.6276 355.9192 354.8541 0.4503822
101.6567 355.9034 354.8968 0.4665579
101.6901 355.8788 354.8641 0.4935962
101.7193 355.908 354.8307 0.4001924
101.7502 355.9105 354.8283 0.3017436
101.7835 356.0631 354.8198 0.3689172
101.8139 356.1342 354.8352 0.4019023
101.8457 356.1526 354.8447 0.473117
101.879 356.1523 354.8174 0.4448432
101.9096 356.167 354.7533 0.3632215
101.943 356.1487 354.7125 0.3967453
101.9745 356.1024 354.7677 0.306731
102.0041 356.1678 354.7868 0.3839229
102.036 356.2498 354.7926 0.4124863
102.0693 356.2972 354.8092 0.3799683
102.1026 356.3364 354.8257 0.3570454
102.1329 356.3539 354.8185 0.3575315
102.1626 356.4382 354.7709 0.3604501
102.1936 356.4796 354.7407 0.3605331
102.2269 356.5072 354.7084 0.3694241
102.2602 356.5201 354.6778 0.3547899
102.2898 356.584 354.7123 0.3911129
102.3231 356.5439 354.7171 0.4143694
102.3542 356.6458 354.66 0.4245243
102.3875 356.7146 354.6514 0.4906798
102.4208 356.7286 354.6113 0.4616232
102.4542 356.7647 354.5455 0.4461277
102.4862 356.8143 354.5172 0.3128137
102.5195 356.9082 354.4478 0.3378498
102.5487 357.0606 354.374 0.3965805
102.582 357.1728 354.2885 0.3479304
102.6111 357.3189 354.1704 0.3394781
102.6444 357.4374 354.0005 0.2650271
102.6739 357.4304 353.8865 0.2507056
102.7046 357.4218 353.7755 0.2795981
102.738 357.4008 353.6618 0.1686269
102.7697 357.3636 353.5693 0.1867949
102.7979 357.4306 353.4911 0.226433
102.8299 357.4677 353.4271 0.1930398
102.8624 357.5005 353.3168 0.1391417
102.8957 357.5379 353.2914 0.1015412
102.9257 357.6202 353.3144 0.05637235
102.9554 357.7017 353.3739 359.9622
102.9887 357.7343 353.3796 359.9189
103.022 357.7316 353.399 359.9593
103.0554 357.7317 353.3854 359.9614
103.0843 357.759 353.3812 359.9941
103.1129 357.7859 353.3813 0.01477455
103.1462 357.7135 353.3734 0.0359949
103.1746 357.6534 353.3577 0.06710492
103.208 357.5879 353.317 359.9315
103.2372 357.5849 353.3158 359.7814
103.2685 357.7737 353.2364 359.7793
103.3 357.8105 353.1982 359.7915
103.3311 357.8347 353.1301 359.7743
103.3644 357.8474 353.0284 359.8046
103.3946 357.851 352.9064 359.8881
103.4238 357.7729 352.8629 359.937
103.4538 357.6677 352.7532 359.8958
103.4872 357.5952 352.7474 359.9096
103.5205 357.5886 352.7339 -0.005189202
103.5514 357.5939 352.7661 0.06432529
103.5848 357.5778 352.8494 0.1563286
103.6149 357.6623 352.9242 0.1726991
103.6452 357.8518 352.9842 0.1632717
103.6786 358.0908 353.0069 0.2870453
103.7119 358.2166 353.0204 0.4975089
103.7424 358.2029 353.0192 0.4632117
103.7717 358.2354 352.9296 0.4116783
103.8051 358.2556 352.8521 0.4214185
103.8384 358.2705 352.7917 0.3512958
103.8699 358.3296 352.7976 0.4118429
103.9018 358.339 352.8178 0.5775865
103.9352 358.3345 352.8491 0.5521719
103.9685 358.3889 352.7999 0.3560083
104.0018 358.431 352.6978 0.2330493
104.0311 358.4921 352.6136 0.3800817
104.0624 358.5116 352.6176 0.5109482
104.0943 358.4336 352.6716 0.5179902
104.1265 358.2943 352.6975 0.3975469
104.1598 358.318 352.6709 0.3131493
104.1931 358.3254 352.6277 0.2734321
104.2231 358.2792 352.5228 0.2913339
104.2554 358.2437 352.4904 0.30902
104.2857 358.272 352.4768 0.4662927
104.319 358.3289 352.5569 0.6451294
104.3517 358.2688 352.6784 0.6706682
104.3832 358.2622 352.8238 0.7091992
104.4161 358.2837 352.8686 0.7553128
104.4494 358.4191 352.8461 0.9199942
104.4827 358.5187 352.8276 1.080557
104.5142 358.6169 352.7659 1.17138
104.5475 358.6794 352.6548 1.212891
104.5774 358.7081 352.5979 1.231217
104.6074 358.7136 352.594 1.199533
104.6407 358.7996 352.6051 1.194611
104.6717 358.824 352.6927 1.156239
104.7003 358.8079 352.8498 1.123526
104.7337 358.7605 352.9409 1.075818
104.7621 358.6495 353.0984 0.9040642
104.7954 358.5878 353.1386 0.74033
104.8246 358.7336 353.1038 0.7554417
104.8579 358.8726 352.9742 0.7617567
104.8865 358.9376 352.836 0.8585802
104.9167 358.9579 352.7528 0.912083
104.9501 358.9215 352.7245 0.9367222
104.9829 358.8496 352.7548 0.9580409
105.0132 358.6908 352.7302 0.853572
105.0466 358.6819 352.7275 0.8767438
105.0799 358.7372 352.6508 1.021579
105.1132 358.8202 352.626 1.077236
105.1466 358.9209 352.6523 1.028816
105.1799 358.9987 352.6905 0.9304896
105.2114 358.9571 352.6959 0.9965167
105.2447 358.8977 352.6482 1.08252
105.278 359.0356 352.5934 1.039776
105.3113 359.1264 352.6181 0.958167
105.3394 358.9846 352.6164 0.8491605
105.3728 358.9385 352.6651 0.8318628
105.4038 358.9271 352.7122 0.8314145
105.4371 358.9247 352.775 0.8119051
105.4704 358.9214 352.8283 0.824296
105.4997 358.9619 352.8969 0.785042
105.533 359.0702 352.938 0.8004899
105.5664 359.1865 352.951 0.9359835
105.5997 359.2015 352.964 1.039616
105.6295 359.1762 352.9015 1.081849
105.6628 359.279 352.6965 1.267239
105.694 359.2679 352.6015 1.282898
105.7257 359.1515 352.5425 1.252985
105.7591 359.1176 352.5249 1.182063
105.7889 359.0726 352.5352 1.194881
105.8223 359.0542 352.6031 1.253787
105.8518 359.1303 352.6765 1.262392
105.8825 359.1379 352.7145 1.215559
105.9158 359.1436 352.7585 1.139143
105.9455 359.1613 352.6903 1.055998
105.9788 359.1197 352.6124 0.941656
106.0122 359.135 352.5868 0.8806247
106.0412 359.1008 352.5927 0.8858152
106.0745 359.0475 352.6421 0.8638052
106.1042 359.0115 352.7101 0.8425285
106.1359 358.9764 352.7755 0.8325719
106.1673 359.0038 352.8147 0.876956
106.1983 359.0651 352.7753 0.9055697
106.2316 359.0864 352.7276 0.9083923
106.265 359.0999 352.7046 0.8261386
106.2944 359.1859 352.6707 0.6974573
106.3278 359.2729 352.6575 0.687278
106.359 359.3755 352.6816 0.704537
106.3924 359.4001 352.7034 0.7248054
106.4221 359.3839 352.7481 0.7719702
106.4534 359.304 352.8066 0.7598577
106.4826 359.267 352.7971 0.8050917
106.5142 359.2317 352.8042 0.7505681
106.5475 359.1997 352.8107 0.7994791
106.5809 359.2051 352.8149 0.8471797
106.6112 359.3129 352.8013 0.8312896
106.6443 359.3164 352.7681 0.8253629
106.6743 359.2935 352.746 0.7739743
106.7076 359.2454 352.7397 0.7216116
106.7364 359.2755 352.8051 0.750986
106.7697 359.2857 352.8373 0.7678658
106.8013 359.3459 352.8613 0.7632455
106.8326 359.3645 352.8534 0.7504714
106.8659 359.3837 352.8482 0.6999731
106.8993 359.4156 352.8802 0.7051754
106.9301 359.4924 352.8395 0.7133725
106.9601 359.5288 352.8315 0.6804692
106.9899 359.5175 352.844 0.6515168
107.0233 359.4861 352.8661 0.559332
107.0566 359.3827 352.9079 0.4904898
107.0895 359.4799 352.9346 0.4912334
107.1228 359.5846 352.9544 0.5177889
107.1562 359.604 352.981 0.5415756
107.1895 359.5018 352.9839 0.4888816
107.2228 359.3816 353.039 0.3955307
107.2522 359.2655 353.0765 0.3674164
107.2821 359.1889 353.084 0.2745023
107.3147 359.1854 353.076 0.3434627
107.3481 359.3421 353.0627 0.4967936
107.381 359.4613 353.0486 0.4615122
107.414 359.5691 353.1075 0.3285327
107.4428 359.5641 353.1988 0.2565509
107.4762 359.6056 353.3228 0.2076158
107.5095 359.5449 353.4492 0.2028862
107.5395 359.5327 353.4836 0.2473808
107.57 359.5417 353.3371 0.2588333
107.6003 359.5832 353.2416 0.2828383
107.6293 359.6163 353.1596 0.2456425
107.6627 359.6617 353.0816 0.2493865
107.6929 359.5813 353.1053 0.2644671
107.7231 359.4556 353.1723 0.2598846
107.7521 359.287 353.2241 0.1854125
107.7854 359.2612 353.2681 0.2365388
107.8188 359.2906 353.2319 0.3829736
107.8484 359.3081 353.1929 0.4421511
107.8801 359.3219 353.1407 0.4359194
107.9134 359.2889 353.1203 0.3754746
107.9459 359.201 353.1577 0.3230828
107.9792 359.0678 353.1716 0.3374254
108.0098 359.0179 353.1812 0.2868971
108.0431 358.9293 353.1544 0.2825885
108.0751 358.9461 353.0819 0.3005392
108.1084 358.9707 353.1142 0.2593047
108.1417 358.9207 353.1413 0.2066052
108.1732 358.9519 353.2253 0.1651951
108.2016 359.0032 353.3491 0.04773666
108.2339 358.9995 353.4531 0.04018885
108.2635 359.0086 353.4983 0.0844871
108.2968 359.0059 353.4985 0.1391809
108.3253 359.0184 353.4619 0.1495328
108.3586 359.0415 353.3938 0.1827001
108.3878 359.0554 353.3978 0.1923328
108.4177 359.0601 353.4995 0.2092124
108.451 359.0112 353.6154 0.2316345
108.4839 359.09 353.6933 0.2373072
108.5146 359.1528 353.7001 0.1293436
108.5448 359.186 353.7056 0.1570538
108.5742 359.1821 353.7181 0.1993863
108.6076 359.17 353.7162 0.1493327
108.6366 359.1313 353.7547 0.05398623
108.666 359.1781 353.7744 359.8784
108.6946 359.1348 353.8427 359.6876
108.7246 359.07 353.8863 359.7343
108.7579 359.051 353.9549 359.8161
108.7907 358.9975 353.9797 359.873
108.8191 358.8591 353.9771 359.9071
108.8482 358.7603 353.9146 359.8811
108.8816 358.7247 353.9035 359.8456
108.9149 358.7072 353.8929 359.7566
108.9451 358.7049 353.9105 359.7894
108.9751 358.7079 353.9751 359.8314
109.0034 358.649 353.988 359.8593
109.0341 358.6609 353.9568 359.902
109.0675 358.7119 353.9333 359.9145
109.0982 358.7787 353.8803 359.9639
109.1306 358.825 353.852 0.0003046745
109.1639 358.94 353.8182 0.06435245
109.1968 359.0847 353.779 0.06867579
109.2301 359.082 353.7849 0.05739919
109.262 359.1089 353.8439 359.9331
109.2953 359.0887 353.9015 359.9745
109.3235 359.1516 353.8939 0.0752538
109.3553 359.105 353.8526 0.1186334
109.3886 359.0803 353.8601 0.1226933
109.422 359.0812 353.8445 0.1192306
109.4517 359.1622 353.8061 0.1149875
109.4828 359.2161 353.7804 0.06659035
109.5147 359.1628 353.8066 0.02006623
109.5481 359.0872 353.7554 0.08758631
109.5775 359.0499 353.7661 0.07271603
109.6084 359.0728 353.7467 0.001920301
109.6402 359.0786 353.663 359.9225
109.6727 359.1625 353.6472 359.8885
109.706 359.2007 353.6155 359.8095
109.7375 359.2694 353.6703 359.6958
109.7683 359.2212 353.7944 359.6385
109.8016 359.2065 353.8825 359.5796
109.8321 359.1777 353.9507 359.6555
109.8654 359.149 354.0343 359.7381
109.8942 359.1519 354.1098 359.8116
109.9238 359.1471 354.152 359.8519
109.9519 359.0618 354.18 359.7508
109.9826 359.1 354.2299 359.6438
110.016 359.1627 354.2286 359.6109
110.0484 359.2697 354.1539 359.6795
110.0788 359.4094 354.0659 359.7917
110.1105 359.3998 354.0606 359.7373
110.1438 359.3177 354.0724 359.6882
110.1772 359.1711 354.0521 359.6865
110.2057 359.0474 354.0258 359.6817
110.2376 358.9068 354.0644 359.7631
110.2663 358.9181 354.1098 359.8993
110.2996 358.968 354.195 359.9325
110.3329 359.007 354.2192 359.9121
110.3655 359.0172 354.234 359.9468
110.3979 359.0579 354.1925 0.007604365
110.4313 359.0322 354.1625 0.09165304
110.4608 358.9916 354.1231 0.1657626
110.4941 358.972 354.0578 0.1960922
110.5221 358.9626 354.0319 0.2054995
110.5554 358.9733 353.9958 0.2162933
110.5852 358.9421 354.0057 0.1933159
110.6166 358.9729 354.0066 0.1312618
110.65 359.0107 354.0269 0.02497857
110.6833 358.9987 354.0786 359.9162
110.7154 359.1798 354.1653 359.9591
110.7483 359.2518 354.2066 -0.005292961
110.7816 359.2194 354.2631 0.04652309
110.815 359.2008 354.2616 -0.000358393
110.8438 359.142 354.2245 359.9865
110.8744 359.0171 354.2073 0.003639959
110.9039 358.9757 354.2092 359.9596
110.9364 358.9221 354.1657 0.01570466
110.9697 358.917 354.1738 0.06607778
111.0001 358.9753 354.1758 0.07057865
111.029 358.9932 354.163 0.09034774
111.0602 359.0239 354.1457 0.07665535
111.0935 359.0203 354.1329 0.06554488
111.1269 358.9797 354.1357 0.09777813
111.1561 358.9817 354.1153 0.1271317
111.1875 358.9769 354.0686 0.1368433
111.2197 359.0044 354.0089 0.1531958
111.2524 358.9915 353.9257 0.2561838
111.2858 358.8432 353.8419 0.3506826
111.3162 358.8418 353.7007 0.3669276
111.3471 358.9798 353.6372 0.2465289
111.3767 359.0939 353.6624 0.06645827
111.4063 359.1273 353.7051 0.05480231
111.4396 359.2023 353.8432 0.1434874
111.4695 359.1689 353.9083 0.2474394
111.5029 359.1321 353.9025 0.2427007
111.534 359.1108 353.9105 0.08541176
111.5657 359.0522 353.9479 0.07957695
111.599 358.9898 354.0109 0.1185731
111.6308 358.9249 354.0525 0.05521587
111.6626 358.9457 354.0643 0.1027672
111.6947 358.9902 354.0039 0.04028659
111.728 359.1012 354.0107 359.8838
111.7614 359.0424 354.115 359.8491
111.7947 358.989 354.2661 359.8361
111.8274 358.9539 354.4419 359.8274
111.8607 358.9311 354.4695 359.8508
111.8917 358.9232 354.461 359.8603
111.925 358.9709 354.4387 359.8969
111.9559 359.0274 354.4286 359.912
111.9892 359.0831 354.3871 359.9813
112.0225 359.1373 354.3664 359.9566
112.0515 359.163 354.3865 359.9579
112.0848 359.1779 354.4601 359.9544
112.1181 359.211 354.5735 359.7989
112.1492 359.3024 354.6595 359.8892
112.1793 359.3621 354.7076 359.8976
112.2126 359.4021 354.6823 359.9188
112.2459 359.35 354.7841 359.9586
112.2775 359.3007 354.8018 359.9454
112.3097 359.1654 354.8373 359.9694
112.3416 359.0453 354.8835 359.9503
112.3712 358.9036 354.9803 359.9418
112.4046 358.8702 354.9967 359.9871
112.434 358.8814 355.0351 359.9795
112.4648 358.8671 355.0848 359.9745
112.4951 358.8856 355.1175 359.9758
112.5264 358.8351 355.1306 359.9925
112.5598 358.8257 355.1635 0.03728765
112.5894 358.7352 355.1936 0.07766657
112.6201 358.7077 355.2174 0.1574471
112.6504 358.6719 355.2818 0.1862362
112.6797 358.6699 355.3024 0.2205409
112.713 358.627 355.3932 0.3193563
112.7422 358.5511 355.4927 0.3978232
112.7745 358.4677 355.6495 0.3910984
112.8061 358.4578 355.874 0.3070933
112.8386 358.465 356.0247 0.2716796
112.872 358.5157 356.241 0.3024296
112.9025 358.422 356.4484 0.3559491
112.9342 358.3064 356.6674 0.4112669
112.9675 358.1197 356.9169 0.4187244
112.9962 357.8792 357.2464 0.4544232
113.0295 357.7015 357.7375 0.5110486
113.058 357.5467 358.0967 0.53936
113.0905 357.2133 358.7512 0.5342141
113.1222 356.9727 359.2521 0.6327224
113.1532 356.7122 359.7253 0.6969392
113.1865 356.2968 0.2994706 0.7927245
113.2198 355.8932 0.8222468 0.9173108
113.2529 354.7028 2.641669 1.504809
113.2863 353.7876 4.572721 2.166569
113.3181 352.8827 6.622717 2.79122
113.3514 352.4619 7.564656 2.960722
113.3847 351.9137 8.902037 3.05674
113.4181 351.6666 9.704671 3.078569
113.4469 351.547 9.923865 3.238348
113.4802 351.4941 9.999702 3.374933
113.5135 351.529 9.737953 3.642822
113.5429 351.4992 9.516438 3.74393
113.5712 351.326 8.968212 3.821729
113.6045 351.296 8.673508 3.922393
113.6374 351.2052 8.304109 4.07259
113.6707 350.994 7.934282 4.23943
113.7007 350.7564 7.643292 4.391498
113.734 350.5931 7.483275 4.533932
113.7672 350.4932 7.431762 4.702083
113.8006 350.3396 7.40081 4.943243
113.8339 350.1982 7.373099 5.203752
113.8651 350.117 7.276509 5.348582
113.8958 350.0006 7.182054 5.446142
113.9254 349.9208 7.184515 5.406485
113.9548 349.8637 7.13411 5.439487
113.9882 349.8886 7.111867 5.431668
114.0181 349.7314 7.091321 5.426154
114.0496 349.354 7.359207 5.166954
114.0794 349.2902 7.700274 5.100911
114.1128 349.3828 7.849083 5.137307
114.1461 349.4498 7.913433 5.142628
114.1784 349.6082 7.859498 5.137056
114.2101 349.8712 7.724257 4.995893
114.2434 350.0654 7.53345 4.854124
114.2756 350.1223 7.328684 4.815572
114.309 350.0204 7.21313 4.641141
114.3392 349.9749 7.112993 4.499477
114.371 349.9796 6.830234 4.755007
114.401 350.0485 6.665264 4.761639
114.4323 350.1526 6.554111 4.808358
114.4656 350.3244 6.472194 4.747398
114.4946 350.5552 6.471675 4.563572
114.528 350.5638 6.466781 4.432762
114.5588 350.4634 6.491816 4.325689
114.5881 350.3818 6.450266 4.311699
114.6214 350.3232 6.456326 4.296494
114.6503 350.2867 6.495955 4.293755
114.6805 350.3547 6.593877 4.240442
114.7089 350.4299 6.64629 4.148455
114.7422 350.5701 6.678993 4.131896
114.7755 350.616 6.779348 3.990138
114.8089 350.6357 6.892381 3.93201
114.8375 350.636 7.046873 3.831509
114.8708 350.6099 7.117531 3.752204
114.9005 350.6312 7.165795 3.656913
114.9339 350.6104 7.165459 3.630621
114.9672 350.6192 7.203984 3.600842
114.9981 350.5452 7.18093 3.449446
115.0271 350.5137 7.218656 3.301372
115.0589 350.5282 7.174686 3.266275
115.0922 350.5281 7.177355 3.242785
115.1255 350.5695 7.205204 3.220757
115.1562 350.5985 7.22558 3.174596
115.1864 350.5416 7.232578 3.093205
115.2168 350.4701 7.307637 3.028439
115.2501 350.3857 7.367763 2.933963
115.2809 350.3352 7.456871 2.791517
115.3117 350.4588 7.467509 2.878728
115.3421 350.5828 7.541981 2.926822
115.3755 350.6822 7.574781 2.987434
115.4088 350.7459 7.586387 3.015133
115.4388 350.76 7.602343 3.041646
115.4677 350.7843 7.578325 3.051798
115.4991 350.8156 7.571875 3.088095
115.5304 350.856 7.57937 3.097709
115.5638 350.8528 7.566143 3.035702
115.5967 350.9259 7.574437 3.015447
115.6274 351.0405 7.668256 3.007775
115.6562 351.1073 7.757847 3.012954
115.6895 351.0748 7.860233 3.044014
115.7229 351.1185 7.908942 3.051832
115.7549 351.1849 7.99563 2.96917
115.7879 351.3977 8.129441 2.867178
115.8212 351.5902 8.171316 3.099712
115.8509 351.6213 8.170538 3.290431
115.8843 351.6985 8.137381 3.462779
115.913 351.6934 8.057854 3.551723
115.9464 351.6469 7.977336 3.639822
115.9776 351.6622 7.928537 3.670474
116.0083 351.67 7.954857 3.607896
116.0417 351.6861 7.983062 3.647292
116.0716 351.6707 8.047857 3.704545
116.1 351.6129 8.075839 3.640173
116.1319 351.5155 8.107635 3.616321
116.1609 351.4034 8.080526 3.541138
116.1942 351.3438 8.010854 3.553133
116.2232 351.2747 7.905063 3.587913
116.2531 351.357 7.826319 3.612294
116.2826 351.5055 7.810982 3.6017
116.3137 351.6717 7.702033 3.625551
116.347 351.8996 7.634961 3.619621
116.3783 351.9276 7.626799 3.636868
116.4069 351.7633 7.533372 3.753839
116.4391 351.5907 7.443587 3.805349
116.4687 351.483 7.360202 3.942232
116.502 351.369 7.321168 3.877721
116.5316 351.2809 7.344535 3.788802
116.562 351.3249 7.41639 3.815848
116.5925 351.3492 7.434968 3.799878
116.623 351.3789 7.409992 3.848665
116.6563 351.4109 7.316227 3.938016
116.6865 351.4067 7.275313 3.907397
116.7161 351.4027 7.243319 3.893279
116.7462 351.3513 7.221706 3.801922
116.7763 351.332 7.253349 3.744439
116.8097 351.416 7.258811 3.824163
116.8392 351.5502 7.32244 3.816616
116.8725 351.6847 7.349216 3.8075
116.9037 351.7206 7.278807 3.769151
116.937 351.7078 7.195247 3.801349
116.9703 351.6788 7.160778 3.798777
117.0029 351.6512 7.195297 3.720834
117.0315 351.7064 7.265135 3.685735
117.0628 351.7442 7.371601 3.70906
117.0961 351.8774 7.424342 3.832399
117.1295 351.9982 7.53896 3.934457
117.1576 351.98 7.583785 3.944575
117.1873 351.8492 7.622086 3.834548
117.2183 351.7706 7.637035 3.622235
117.2488 351.8087 7.558838 3.630274
117.2821 351.8146 7.493475 3.603607
117.3116 351.8629 7.391894 3.677499
117.341 351.8926 7.274601 3.814671
117.371 351.8729 7.184375 3.938229
117.4008 351.858 7.120923 4.00982
117.4341 351.8136 7.076612 4.036954
117.4635 351.8334 7.101543 4.056536
117.4947 351.9936 7.179764 4.141339
117.5265 351.9727 7.221275 4.218113
117.5572 351.8269 7.263556 4.271753
117.5905 351.7433 7.275023 4.322849
117.6238 351.7558 7.258983 4.348526
117.6572 351.8571 7.165919 4.356384
117.6905 351.9752 7.083347 4.218215
117.7197 352.0466 7.088502 4.113618
117.753 352.0666 7.162455 4.009012
117.7826 352.0425 7.232848 3.989021
117.8151 352.0256 7.332294 4.054786
117.8447 352.0317 7.377755 4.120944
117.8767 352.0121 7.331542 4.187386
117.9101 352.0501 7.214599 4.246144
117.9403 352.1292 7.12555 4.26514
117.9688 352.2636 7.012015 4.394344
118.0007 352.4432 7.005163 4.49305
118.034 352.4976 6.956001 4.580387
118.0673 352.5049 6.93285 4.646276
118.0979 352.5011 6.906298 4.529287
118.1282 352.5457 6.934042 4.498218
118.1593 352.5142 7.000354 4.428058
118.1923 352.476 7.108819 4.398149
118.2257 352.5332 7.171087 4.454307
118.2546 352.6206 7.225789 4.459437
118.2833 352.7018 7.254024 4.41138
118.3135 352.7463 7.250557 4.328163
118.3431 352.8103 7.265948 4.26889
118.3764 352.8134 7.280543 4.217045
118.4051 352.8395 7.334701 4.198748
118.4384 352.8907 7.407455 4.172923
118.4674 352.9114 7.454622 4.245825
118.4974 352.8891 7.45482 4.299028
118.5307 352.8635 7.480355 4.307768
118.5609 352.8185 7.464986 4.321691
118.5926 352.7821 7.505392 4.185507
118.6244 352.7301 7.515951 4.119806
118.6553 352.6507 7.541149 4.014131
118.6886 352.6803 7.55173 4.044775
118.7201 352.8255 7.574885 4.134417
118.7505 352.9992 7.60752 4.136142
118.7794 353.038 7.593291 4.200655
118.8102 353.0215 7.548744 4.217691
118.8436 352.9841 7.529961 4.258744
118.8736 352.9153 7.492061 4.231844
118.9032 352.8185 7.471287 4.158364
118.9365 352.7418 7.463292 4.170413
118.9654 352.7721 7.501179 4.172408
118.9987 352.8006 7.528099 4.160828
119.0294 352.8622 7.613266 4.153389
119.0613 352.9151 7.673844 4.187201
119.093 352.9342 7.677615 4.21546
119.1264 352.95 7.638735 4.246744
119.1597 352.9794 7.543252 4.296697
119.1897 352.9868 7.468463 4.315183
119.2205 352.9541 7.430618 4.353832
119.2537 352.8591 7.39543 4.372655
119.2835 352.8214 7.393382 4.41161
119.3169 352.812 7.39748 4.346244
119.3502 352.7818 7.436314 4.24271
119.3797 352.9355 7.427147 4.284004
119.4128 352.9811 7.454813 4.315813
119.4438 353.0186 7.448739 4.32539
119.4771 353.008 7.491468 4.350728
119.5067 352.9424 7.488416 4.390004
119.5351 352.8964 7.518975 4.413432
119.5648 352.8758 7.564425 4.34463
119.5944 352.7776 7.650114 4.286421
119.6277 352.6967 7.663045 4.300225
119.6611 352.6855 7.667503 4.261257
119.6933 352.7202 7.657476 4.220207
119.7217 352.7556 7.621866 4.224154
119.7539 352.8386 7.650082 4.196825
119.7872 352.8661 7.670994 4.178176
119.8199 352.9143 7.768247 4.144448
119.8487 352.9064 7.833471 4.166737
119.8782 352.8587 7.85887 4.196433
119.9089 352.853 7.856455 4.20228
119.9422 352.8193 7.820668 4.266954
119.9756 352.78 7.750559 4.37626
120.0059 352.7724 7.73989 4.42405
120.0391 352.7727 7.744209 4.400124
120.069 352.8126 7.776668 4.282718
120.1023 352.8171 7.799163 4.270158
120.1349 352.9049 7.8451 4.271732
120.1682 352.9918 7.850929 4.312603
120.2015 353.0359 7.834714 4.380658
120.2318 353.0924 7.832376 4.340018
120.2652 353.087 7.817057 4.342715
120.2935 352.9163 7.745936 4.316093
120.3263 352.9198 7.744319 4.275424
120.3547 352.9531 7.773482 4.368278
120.388 352.9672 7.849063 4.355688
120.4214 352.9655 7.911723 4.366632
120.4512 353.0219 7.975842 4.347724
120.4791 353.0452 8.008587 4.416584
120.5125 353.121 7.975127 4.446054
120.5415 353.1715 7.957719 4.451744
120.5748 353.2271 7.926968 4.494839
120.6043 353.2142 7.925825 4.51315
120.637 353.2345 7.991404 4.513181
120.6655 353.1642 7.969786 4.511096
120.698 353.2349 8.008729 4.512186
120.7313 353.248 8.011456 4.411492
120.7647 353.2547 8.056386 4.322462
120.7928 353.2919 8.187364 4.163424
120.8236 353.3367 8.321276 4.079657
120.8531 353.4621 8.400271 4.120697
120.8865 353.5843 8.427522 4.252504
120.9198 353.7188 8.372267 4.365897
120.9514 353.8509 8.245117 4.352704
120.981 353.8233 8.226098 4.384123
121.0143 353.7954 8.164529 4.391007
121.0477 353.6814 8.174578 4.350551
121.077 353.7744 8.257873 4.373231
121.1058 353.8725 8.39952 4.456104
121.1391 353.9332 8.495275 4.413835
121.1724 353.9449 8.439393 4.374098
121.2058 353.9899 8.351688 4.350626
121.236 354.1128 8.25535 4.380696
121.2676 354.183 8.184437 4.438067
121.2982 354.1887 8.167626 4.509139
121.3295 354.2785 8.180222 4.503872
121.3629 354.279 8.191805 4.528692
121.3933 354.2658 8.182499 4.520253
121.4217 354.2651 8.174448 4.533704
121.4549 354.2274 8.20796 4.462754
121.484 354.1716 8.254767 4.431683
121.5173 354.154 8.31091 4.338081
121.5473 354.1341 8.3448 4.247318
121.5781 354.2026 8.353885 4.32143
121.6068 354.2775 8.357408 4.327129
121.6379 354.3002 8.367973 4.345026
121.6713 354.3048 8.389846 4.35153
121.7046 354.2828 8.434788 4.312799
121.7379 354.1906 8.45009 4.277406
121.7713 354.1255 8.517479 4.14674
121.8007 354.0563 8.547737 4.095693
121.834 354.0596 8.557074 4.07383
121.8674 354.0895 8.542219 4.060072
121.9007 354.0831 8.517293 4.02507
121.9327 354.1324 8.526759 4.016502
121.9646 354.1846 8.527769 4.059891
121.9979 354.1813 8.564924 4.087152
122.0312 354.1671 8.557227 4.108391
122.0631 354.1264 8.554371 4.15498
122.0964 354.1254 8.492938 4.158813
122.1297 354.1336 8.460521 4.172182
122.1631 354.0692 8.451615 4.199985
122.1923 354.1225 8.444094 4.224153
122.2236 354.1013 8.441278 4.182449
122.2516 354.171 8.472499 4.139671
122.2849 354.2699 8.487809 4.186767
122.3182 354.3733 8.515772 4.271799
122.3512 354.3575 8.503741 4.347052
122.3828 354.3615 8.455532 4.359877
122.4125 354.3936 8.386168 4.302632
122.4423 354.3753 8.28285 4.367692
122.4756 354.3438 8.243016 4.275984
122.5089 354.3124 8.288275 4.228719
122.541 354.3875 8.383654 4.253713
122.5699 354.3759 8.40413 4.240201
122.6016 354.3368 8.416927 4.223566
122.635 354.4096 8.396976 4.173181
122.6656 354.432 8.421237 4.172296
122.694 354.4252 8.494939 4.194497
122.7273 354.4738 8.577152 4.216172
122.7575 354.5224 8.596887 4.264089
122.7909 354.5023 8.611156 4.257549
122.82 354.5338 8.590152 4.234455
122.8501 354.554 8.631638 4.229918
122.8814 354.515 8.632049 4.267275
122.912 354.4618 8.648582 4.250928
122.9454 354.4746 8.637696 4.19907
122.9751 354.4899 8.606511 4.120208
123.0048 354.5321 8.647103 3.991812
123.0381 354.6742 8.685966 4.009377
123.0696 354.7111 8.756096 3.993849
123.1029 354.6626 8.855901 4.08236
123.1339 354.677 8.936614 4.208597
123.1645 354.7045 9.120644 4.075849
123.1954 354.6755 9.259982 4.029236
123.2269 354.6396 9.423742 3.92628
123.2602 354.7021 9.604604 3.783544
123.29 354.8231 9.825698 3.705699
123.318 354.9899 10.0484 3.549218
123.3484 355.0448 10.17738 3.441342
123.3809 355.1054 10.39958 3.26495
123.4143 355.2532 10.54586 3.122847
123.443 355.3506 10.71075 2.98021
123.4724 355.3928 10.85028 2.873818
123.5027 355.4869 10.96496 2.867852
123.536 355.5286 11.13591 3.10816
123.5693 355.5771 11.3948 3.240617
123.6027 355.6389 11.67593 3.290131
123.6337 355.7183 11.91999 3.213423
123.6645 355.7154 12.0512 3.074467
123.6961 355.7673 12.03072 2.928236
123.7294 355.7964 12.02458 2.8149
123.76 355.6964 12.01396 2.595962
123.7933 355.6502 12.04538 2.470435
123.8237 355.5828 11.96007 2.413457
123.8546 355.506 11.85965 2.375883
123.8879 355.5271 11.77995 2.308152
123.9213 355.512 11.74404 2.253406
123.9515 355.3943 11.66432 2.17525
123.9837 355.2494 11.6372 2.077844
124.013 355.2661 11.66742 2.051301
124.0464 355.2527 11.71349 2.081333
124.0764 355.2177 11.70864 2.033207
124.107 355.0343 11.65263 1.950202
124.1372 354.9438 11.56453 1.871885
124.1694 354.8914 11.44337 1.812994
124.2027 354.9316 11.34084 1.759788
124.2329 354.9838 11.30571 1.717613
124.2648 355.1121 11.33688 1.686712
124.2958 355.2142 11.39241 1.711101
124.3255 355.2985 11.42736 1.745448
124.3589 355.3014 11.44659 1.757395
124.3893 355.2024 11.35514 1.819872
124.419 355.2586 11.25225 1.92456
124.4488 355.2221 11.11172 1.91474
124.4809 355.2363 11.04539 1.906117
124.5142 355.2561 10.93996 1.951127
124.544 355.2484 10.84291 2.071993
124.5739 355.2675 10.75352 2.137022
124.6072 355.218 10.63962 2.163998
124.6376 355.1351 10.43542 2.116125
124.671 355.0883 10.31219 2.124547
124.7013 355.047 10.2555 2.103279
124.7327 355.1112 10.30621 2.104884
124.7623 355.0814 10.38167 2.139807
124.7927 355.0972 10.43788 2.14875
124.826 355.1054 10.48081 2.136216
124.8562 355.0594 10.44512 2.069006
124.8877 354.9581 10.39124 2.083137
124.9177 354.981 10.31419 2.141123
124.9511 355.0622 10.32965 2.175137
124.9844 355.1944 10.31637 2.185472
125.0177 355.1756 10.26289 2.188929
125.0477 355.1508 10.03723 2.106756
125.0766 355.2243 9.801167 2.007716
125.1067 355.2095 9.54533 1.979795
125.1401 355.0612 9.072796 1.968274
125.1734 354.9599 8.500312 1.960962
125.2067 354.8658 7.794208 1.928869
125.2369 354.8379 7.036454 1.853683
125.267 354.9763 6.33602 1.818287
125.3003 355.1352 5.551163 1.916499
125.3301 355.2383 4.824917 1.968106
125.3634 355.1324 4.201345 1.871996
125.3921 354.8596 3.470224 1.682272
125.4254 354.6819 3.17293 1.676149
125.4588 354.3892 2.697078 1.680545
125.4888 354.2279 2.170547 1.547721
125.5187 354.2904 1.862237 1.444124
125.5486 354.3327 1.713924 1.320276
125.5773 354.4684 1.529602 1.01976
125.6106 354.7101 1.290097 0.8400919
125.6438 354.8792 1.113703 0.7277026
125.6767 354.9551 0.7944069 0.6540927
125.7061 354.7659 0.4766381 0.8580119
125.7394 354.6041 0.298162 0.8699846
125.7728 354.6163 0.03897673 0.4172785
125.8027 354.893 359.8654 0.111394
125.8344 355.094 359.7859 359.8585
125.8677 355.0129 359.7426 359.6527
125.8973 354.7209 359.7047 359.5033
125.9306 354.4802 359.708 359.4163
125.9624 354.1892 359.6982 359.2802
125.9925 353.8233 359.6007 359.1901
126.0231 353.6924 359.5784 359.4371
126.0535 353.799 359.4439 359.7106
126.0868 353.928 359.4072 359.9673
126.1201 354.0411 359.4665 0.1067021
126.1535 354.1685 359.6273 359.9821
126.1849 354.0426 359.643 359.9194
126.2182 353.9499 359.487 0.02565387
126.2515 353.9223 359.1933 0.3448579
126.2827 354.1908 358.8623 0.4782224
126.3136 354.3158 358.5605 0.5297688
126.3469 354.282 358.2245 0.6256383
126.3786 354.3834 357.9384 0.7255562
126.4119 354.4432 357.7381 0.7575841
126.4428 354.3255 357.4153 0.862439
126.4726 354.3832 357.098 1.076829
126.5026 354.4859 356.7728 1.278877
126.5323 354.4539 356.5038 1.355617
126.5656 354.3972 356.0933 1.494886
126.5955 354.3423 355.675 1.683432
126.6288 354.3729 355.3446 1.729491
126.6578 354.5363 355.0245 1.619411
126.6906 354.6771 354.8268 1.650138
126.7239 354.8493 354.6433 1.706225
126.7545 354.9038 354.4603 1.748813
126.7829 354.9643 354.34 1.72247
126.8139 354.9364 354.3065 1.667156
126.8431 354.8259 354.2404 1.548787
126.8765 354.7218 354.1646 1.477982
126.9098 354.5868 354.1444 1.444092
126.9402 354.4753 354.3057 1.460269
126.9699 354.4023 354.4497 1.399662
127 354.3923 354.5867 1.369461
127.0334 354.5526 354.7076 1.302557
127.065 354.7453 354.7767 1.257225
127.0954 354.8561 354.9047 1.201453
127.1288 354.906 355.0555 1.11079
127.1574 354.8723 355.1278 1.054961
127.1908 354.8154 355.1858 1.044493
127.2211 354.8873 355.1519 1.122922
127.2537 354.9356 355.0089 1.169477
127.2835 354.838 354.906 1.09655
127.3168 354.7776 354.8571 1.030808
127.3501 354.7496 354.9779 0.914984
127.3808 354.8156 355.0251 0.8744226
127.4095 354.9908 355.0087 0.9401547
127.4428 355.0616 355.0186 0.9516898
127.476 355.0352 355.023 1.035338
127.5094 355.0807 355.022 1.000774
127.5427 355.1023 354.9767 0.9752162
127.5742 355.0683 354.9607 1.006868
127.6045 354.9778 354.9897 0.9117268
127.6356 354.9142 355.0563 0.8831111
127.669 354.9575 355.0953 0.8615212
127.7023 355.079 355.1013 0.853182
127.7325 355.2125 355.1161 0.8399633
127.763 355.2271 355.1237 0.8387522
127.7938 355.2838 355.1352 0.8454936
127.8271 355.2566 355.1501 0.8652266
127.8604 355.284 355.1231 0.9117295
127.8912 355.3256 355.0908 0.9324136
127.9213 355.4093 355.0739 0.9195027
127.9528 355.4334 355.0525 0.8954127
127.9861 355.4175 355.0535 0.9301445
128.0187 355.4066 355.1162 0.9293448
128.052 355.3738 355.1485 0.9245461
128.0854 355.3145 355.2425 0.7901378
128.1135 355.3524 355.2885 0.7119906
128.1469 355.4719 355.3392 0.769653
128.1752 355.5321 355.3435 0.7602339
128.2063 355.5427 355.3298 0.8345065
128.2386 355.5398 355.318 0.7953079
128.2694 355.5288 355.2854 0.8100303
128.3027 355.4881 355.2803 0.8890259
128.3339 355.3856 355.2367 0.8209593
128.364 355.329 355.2881 0.8659016
128.3967 355.3598 355.3063 0.8920358
128.4259 355.3748 355.2752 0.9097428
128.4592 355.4334 355.265 0.936963
128.4926 355.5197 355.2861 0.9127889
128.5259 355.5859 355.2856 0.9233612
128.5586 355.6382 355.3189 0.9172297
128.5919 355.6416 355.3026 0.9826838
128.6252 355.7031 355.2444 1.035289
128.6577 355.7273 355.1495 1.083084
128.687 355.7538 355.0544 1.151639
128.7172 355.7408 354.9589 1.193266
128.7474 355.7441 354.9189 1.223358
128.7807 355.7295 354.9249 1.196249
128.8125 355.7653 354.9088 1.185295
128.8431 355.8636 354.8635 1.261432
128.8739 356.0086 354.7724 1.315117
128.9069 356.1692 354.6678 1.329614
128.9402 356.2852 354.4888 1.37789
128.9736 356.4144 354.3794 1.408575
129.0069 356.4662 354.3027 1.499759
129.0403 356.4656 354.2318 1.480295
129.0701 356.5508 354.2186 1.505097
129.1034 356.6616 354.1849 1.489614
129.1327 356.8512 354.1312 1.461421
129.1631 357.1852 354.0636 1.493851
129.1965 357.4119 353.9272 1.472076
129.2298 357.8405 353.7432 1.461977
129.2631 358.4872 353.4017 1.446224
129.2947 358.9521 353.1021 1.468076
129.328 359.8211 352.4591 1.50915
129.3605 0.6014933 351.7639 1.479908
129.3899 1.212301 351.2136 1.416888
129.4232 1.520828 350.8827 1.366979
129.4542 1.776467 350.5869 1.326297
129.4875 2.025644 350.3045 1.288204
129.5209 2.268527 350.2268 1.254573
129.5521 2.563398 350.1646 1.282426
129.5854 2.818506 350.0536 1.2566
129.6168 2.975985 349.9343 1.285171
129.6477 3.110273 349.9085 1.311464
129.681 3.194474 349.9181 1.380367
129.7095 3.253935 350.0285 1.470584
129.7428 3.278973 350.106 1.43855
129.7721 3.28291 350.2297 1.433067
129.8038 3.236387 350.3543 1.433659
129.8349 3.220824 350.4643 1.402206
129.8679 3.225836 350.6022 1.351199
129.9012 3.209768 350.7039 1.326231
129.9345 3.190868 350.7235 1.265592
129.9678 3.171442 350.7762 1.241149
130.0004 3.193441 350.8331 1.261224
130.0323 3.137147 350.8804 1.268927
130.0657 3.144898 350.9349 1.224837
130.0979 3.147689 350.9856 1.226606
130.1304 3.087963 351.1317 1.273238
130.1605 2.962892 351.2563 1.289928
130.1929 2.928475 351.2922 1.298685
130.2263 2.897131 351.4191 1.160285
130.2596 2.880798 351.4747 1.070202
130.2895 2.923259 351.5606 1.052428
130.3228 2.940949 351.621 1.074873
130.3533 2.926296 351.5783 1.152165
130.3866 2.93397 351.598 1.148108
130.4195 2.905228 351.5764 1.209954
130.4528 2.717379 351.624 1.220926
130.4842 2.577909 351.6659 1.162527
130.5175 2.592656 351.6977 1.153491
130.5509 2.677162 351.7495 1.103999
130.5842 2.730044 351.8344 1.012546
130.6134 3.098727 352.0466 0.8951114
130.6457 3.32178 352.2217 0.8059326
130.679 3.563884 352.4142 0.7044729
130.7123 3.84293 352.6805 0.6614161
130.741 4.041028 352.8992 0.7400739
130.7743 3.947397 353.0849 0.7274825
130.8026 3.779398 353.2365 0.6268054
130.8337 3.744193 353.3593 0.548692
130.8671 3.587054 353.4995 0.3169023
130.8978 3.454215 353.6407 0.1130236
130.9312 3.482326 353.7881 359.893
130.9641 3.646226 353.9872 359.5699
130.9975 3.545594 354.1869 359.3982
131.0308 0 0 0
