時間[s] x軸周り[deg] y軸周り[deg] z軸周り[deg]
0 0 0 0
0.02 0 0 0
0.05333333 353.183 359.678 359.4908
0.08666666 353.52 0.3133638 359.7226
0.12 353.539 0.3230841 359.8069
0.1474243 353.6299 0.3252041 0.09399923
0.1807576 353.7337 0.2998655 0.2180428
0.2069849 353.8566 0.317537 0.2930178
0.2352441 354.0011 0.3402833 0.3224346
0.2616609 354.1377 0.4257264 0.3280084
0.2915293 354.2051 0.5187156 0.2769145
0.3192755 354.41 0.698452 0.2212615
0.352406 354.6133 0.8645343 0.1178469
0.3829272 354.9756 1.151754 359.9582
0.4127533 355.3334 1.573085 359.7489
0.4407283 355.6816 2.059626 359.5148
0.4689885 355.8201 2.391938 359.3402
0.4964065 355.9652 2.844774 359.1407
0.525303 356.0325 3.131964 359.0566
0.5548 356.0098 3.500297 359.0291
0.5826404 355.9094 3.75234 359.0181
0.6093042 355.7925 3.849445 359.0545
0.6426376 355.707 3.907953 359.1636
0.6698629 355.618 3.850051 359.3288
0.7031962 355.5966 3.704441 359.3756
0.7365295 355.6162 3.453134 359.573
0.7645338 355.7369 3.151919 359.8008
0.7913322 355.9123 2.875373 359.9574
0.8198087 356.0666 2.67606 0.03889501
0.8485773 356.3589 2.379072 0.1254095
0.8774642 356.5904 2.176367 0.1733154
0.9042466 356.8893 1.903302 0.2277686
0.9341535 357.1244 1.710397 0.3019519
0.9600533 357.4513 1.427705 0.3576978
0.9892047 357.8947 1.153121 0.4116013
1.016463 358.251 0.9756945 0.4227166
1.045916 358.9992 0.6248 0.4465892
1.072682 359.7095 0.339565 0.4748394
1.104145 1.093971 359.8816 0.5026616
1.131808 2.139811 359.5067 0.4965755
1.16288 3.959733 358.7987 0.4646197
1.191151 5.246214 358.2799 0.4674571
1.220419 7.075493 357.522 0.5654124
1.252102 8.400072 356.7902 0.6362222
1.283446 9.955354 355.68 0.6393477
1.310771 11.16239 354.6947 0.671456
1.344104 11.96083 354.1252 0.8240346
1.377437 13.21198 353.556 0.9701959
1.406942 13.78178 353.6888 0.9904668
1.437886 14.04444 354.1115 1.039596
1.465748 14.33429 354.9327 1.194193
1.496148 14.55797 355.9894 1.345563
1.526635 14.72593 356.6905 1.44195
1.554379 14.956 357.4481 1.516089
1.586092 15.09575 358.0802 1.643262
1.612697 15.31467 358.5472 1.822075
1.643206 15.41479 358.6535 1.882499
1.671861 15.55166 358.6206 1.850656
1.702257 15.61797 358.5466 1.847606
1.730772 15.82684 358.1637 1.832309
1.762232 15.99225 357.7549 1.776235
1.789168 16.09525 357.1732 1.72436
1.822501 16.19754 356.5221 1.663969
1.851064 16.24321 355.7231 1.502732
1.884397 16.26335 355.1545 1.39317
1.911857 16.12323 354.2994 1.176738
1.941603 15.52902 353.1177 0.8576329
1.97218 14.96857 352.1798 0.7657291
2.000273 14.4286 351.6392 0.769567
2.028877 13.96553 351.1601 0.7234331
2.058914 13.71441 350.7823 0.8078771
2.092247 13.82395 350.6418 0.96846
2.12265 14.10415 350.4883 1.163088
2.150145 14.25751 350.3929 1.341155
2.180085 14.4333 350.3494 1.499922
2.213418 14.68039 350.2926 1.614013
2.242857 14.9728 350.3214 1.805522
2.270956 15.26236 350.43 2.057081
2.29897 15.34729 350.5786 2.25158
2.325125 15.47916 350.979 2.416586
2.354719 15.55755 351.3369 2.506941
2.382399 15.74484 351.986 2.568947
2.413772 15.80315 352.3912 2.560925
2.447105 15.87862 352.9554 2.483193
2.480438 15.9008 353.4896 2.45102
2.51142 15.84176 354.1096 2.433789
2.542084 15.80144 354.4142 2.457802
2.568462 15.63889 354.7512 2.441565
2.595942 15.43965 355.0916 2.376012
2.622623 15.33585 355.3456 2.343655
2.649875 15.27991 355.5586 2.299986
2.678244 15.28322 355.8423 2.304166
2.708246 15.30604 356.0055 2.344032
2.735196 15.20023 356.1783 2.40166
2.76311 15.10888 356.3949 2.504617
2.793997 15.00647 356.4994 2.497908
2.82733 14.82768 356.7356 2.405535
2.860663 13.77486 2.033746 2.199131
2.893495 13.77026 2.356651 2.210055
2.923173 13.71743 3.392517 2.17435
2.95224 13.6604 3.889695 2.061952
2.980904 13.64372 4.058352 1.976193
3.014237 13.69647 4.096228 1.836577
3.040673 13.75278 4.068052 1.754802
3.068876 13.72917 3.866528 1.645179
3.095898 13.63676 3.56975 1.430064
3.125241 13.60194 3.422169 1.324943
3.152112 13.43314 3.216115 1.194142
3.185445 13.33607 3.09882 1.114333
3.212721 13.25507 3.003194 0.9807714
3.241498 13.18997 2.917916 0.9297013
3.26926 13.10817 2.834219 0.8582636
3.299797 13.0413 2.746561 0.8434024
3.332379 12.9887 2.613814 0.8639525
3.362095 12.87873 2.51239 0.778845
3.392302 12.47528 2.161805 0.598428
3.423436 12.25307 1.731899 0.4980784
3.456769 12.00644 1.291804 0.4521122
3.490102 11.91074 0.935129 0.3650485
3.519343 11.85718 0.295466 0.1267774
3.548594 11.6231 359.7411 0.1435353
3.577104 11.48583 359.2089 0.07626527
3.605841 11.38803 358.8179 0.07113823
3.639175 11.08934 358.2004 359.9828
3.669775 10.44049 357.4456 359.6709
3.698412 9.779301 356.4178 359.2338
3.726426 8.97491 355.1019 358.6986
3.755773 8.050728 353.2567 358.1261
3.789106 7.458454 352.0058 357.8942
3.821811 6.470131 349.9229 357.6896
3.853701 5.570419 347.7217 357.5416
3.884886 4.604407 345.1487 357.3831
3.914505 3.351521 342.0415 357.3162
3.947838 2.491314 339.6993 357.2978
3.976131 0.9729871 336.4212 357.2549
4.004533 358.3639 332.3258 357.3622
4.032833 356.3745 328.8392 357.3506
4.060282 354.1934 325.6438 357.3879
4.093616 352.743 323.5134 357.4706
4.122334 351.3047 321.3103 357.5124
4.151693 349.2428 318.3419 358.0728
4.179648 348.4643 316.8956 358.4428
4.211792 347.9767 315.7583 358.7197
4.245126 347.5728 315.2517 358.9583
4.273137 347.4108 315.0253 359.1404
4.300887 347.089 315.3312 359.3496
4.331424 346.8704 315.7006 359.3369
4.357402 346.7096 316.319 359.2581
4.385809 346.7068 316.735 359.2705
4.419098 346.6959 317.3437 359.2429
4.448351 346.6101 317.6925 359.2161
4.475332 346.477 318.0469 359.1963
4.50412 346.3216 318.3088 359.1156
4.531576 346.1279 318.4467 359.0954
4.560938 345.9461 318.6771 359.1306
4.59333 346.0485 318.9634 359.142
4.622226 346.2005 319.4528 358.9979
4.649269 346.4975 320.3191 358.7493
4.678786 346.7458 321.2314 358.527
4.70689 347.3461 323.2607 358.0842
4.735778 348.2686 326.1588 357.7042
4.768824 348.8641 328.5424 357.4363
4.802158 349.674 332.7125 357.08
4.834988 350.3691 339.3619 357.1318
4.866979 350.7203 343.8313 357.1721
4.897987 351.1862 350.8253 357.4327
4.931321 351.5402 358.9184 357.8812
4.963242 351.8106 4.728024 358.2475
4.993721 351.9789 13.81315 358.7728
5.020667 352.0092 20.86367 358.8139
5.049187 352.1357 27.84575 358.5574
5.08252 352.2577 32.34827 358.3097
5.110706 352.3995 38.44333 357.9456
5.138238 352.1649 43.86628 357.4019
5.167433 351.9525 46.9389 356.9391
5.199569 351.5904 49.67348 356.4467
5.232903 351.3221 51.64624 355.776
5.260699 351.3988 52.69661 355.2339
5.289405 351.3607 52.73216 354.9556
5.31649 351.3185 52.56546 354.8157
5.345013 351.2104 52.17544 354.7339
5.374563 351.1781 51.93266 354.6952
5.407897 351.2834 51.43451 354.73
5.438014 351.3849 51.02012 354.7337
5.467618 351.4832 50.43005 354.7474
5.493903 351.4197 50.12268 354.821
5.523169 351.4606 49.88378 354.8665
5.549753 351.5384 49.81166 354.8932
5.583086 351.6809 49.72783 354.9848
5.61117 351.7748 49.67434 354.9691
5.642579 351.8921 49.53788 354.9536
5.66923 351.928 49.50589 354.9534
5.69944 352.0004 49.49128 354.9785
5.732773 352.0947 49.45933 355.0756
5.760673 352.1613 49.33981 355.2054
5.788478 352.1614 49.14649 355.1843
5.816813 352.1322 48.90435 355.2103
5.844067 352.0886 48.55316 355.259
5.875183 352.1342 48.15407 355.3345
5.908516 352.1096 47.60438 355.5706
5.936617 352.0816 47.28309 355.7242
5.964911 351.9473 46.76408 355.9452
5.992242 351.8964 46.55835 355.9879
6.017604 351.841 46.28175 356.0277
6.04676 351.7723 46.14533 355.968
6.079508 351.7225 46.08167 355.8725
6.107086 351.7628 46.01962 355.7195
6.13433 351.8468 45.89153 355.6816
6.16364 352.0387 45.7264 355.6915
6.191627 352.0894 45.24435 355.8659
6.219263 352.1724 44.6822 356.0642
6.251455 352.4889 43.36506 356.4888
6.278215 352.5808 42.0057 356.5479
6.30727 352.9286 39.69788 356.7122
6.336926 353.6393 36.40274 356.8285
6.363288 353.8314 31.91737 356.8781
6.391848 353.1649 29.4746 356.6392
6.425181 352.5659 27.57329 356.0549
6.453535 352.5179 27.51134 355.7177
6.480631 353.4745 28.50836 356.4023
6.509028 354.5569 28.83079 357.027
6.537889 355.1588 28.24462 357.4141
6.571222 356.3278 26.36194 357.6729
6.599451 357.7295 23.542 357.8494
6.628462 359.1924 20.30887 357.7364
6.657665 0.2906795 17.96705 357.5988
6.688339 0.9388373 15.04933 357.1839
6.720842 1.216833 12.90254 356.9329
6.750808 1.695575 11.51886 356.9267
6.7784 2.604048 9.038568 356.8623
6.806105 3.153572 6.587709 356.9274
6.834168 3.493076 4.609106 356.9142
6.865812 3.636022 1.529502 356.6825
6.898636 3.585294 359.1594 356.7437
6.926935 3.820088 356.1757 356.7802
6.953135 4.535339 353.3221 356.8972
6.981261 5.326109 351.8084 357.0289
7.009108 6.147054 350.5718 357.125
7.038058 7.500593 349.4999 357.2623
7.071392 8.711463 348.8305 357.4337
7.099823 9.343626 348.6595 357.6317
7.127349 10.11824 348.6506 357.8556
7.157494 10.48927 349.0343 357.9165
7.184917 10.91945 349.4489 357.9706
7.21825 11.15373 349.8712 358.0173
7.245374 11.03498 350.4729 358.2034
7.275112 10.9641 351.0385 358.3433
7.302143 10.9292 351.2271 358.328
7.335261 11.01894 351.3738 358.291
7.368595 11.148 351.4577 358.1615
7.399404 11.04213 351.5406 358.072
7.428504 10.15959 351.7977 358.3854
7.458097 9.802011 352.0627 358.5427
7.486382 9.390343 353.1118 358.6563
7.519716 9.143179 353.9715 358.8258
7.547911 8.359676 355.6426 358.8552
7.576985 7.643501 358.2487 359.0255
7.607269 7.013405 1.98769 359.2492
7.640602 6.626867 7.140178 359.7314
7.673935 5.964767 12.49459 0.0316715
7.702892 5.958819 17.77331 0.6592728
7.729743 6.264411 22.2971 1.089446
7.76018 6.282691 24.66812 0.9857703
7.786502 6.131631 27.18437 0.6340663
7.819836 6.073583 28.73569 0.325036
7.848282 6.28734 30.42476 359.8046
7.877513 6.506341 31.44075 359.32
7.906573 6.543475 31.98594 359.0862
7.936836 6.64586 32.52819 358.9037
7.970169 6.458136 32.7998 358.6376
8.003502 5.972837 33.54181 357.6969
8.036836 5.570511 34.92635 357.0245
8.065977 4.264384 38.11228 356.1393
8.092092 3.829305 40.12081 356.2308
8.125425 3.808628 43.08931 356.7186
8.154812 4.020384 45.13777 357.0291
8.182636 4.721213 48.20888 357.6252
8.211255 5.297935 50.40372 358.231
8.242549 5.670517 52.37987 358.908
8.275882 5.945095 53.43792 359.2931
8.307745 6.246967 54.37661 359.6574
8.335318 6.179012 54.78746 359.5916
8.36282 6.135583 54.68519 359.4212
8.389415 5.955517 54.38652 359.3194
8.419978 5.702322 53.91055 359.0961
8.452972 5.720457 53.37989 359.1504
8.486305 5.506628 52.75521 359.2409
8.51685 5.419283 52.26459 359.7027
8.544346 5.437559 51.66995 0.1579577
8.572329 5.501915 51.09266 0.6442151
8.605662 5.502167 50.93692 0.8035738
8.635193 5.509546 50.60741 1.03649
8.663174 2.339225 52.07938 1.626831
8.690566 359.1297 52.29465 359.7827
8.720754 357.4287 52.47624 358.2835
8.750369 352.9378 52.6701 358.0301
8.783703 350.8976 52.31331 358.6764
8.811737 347.8692 52.61522 359.5123
8.840329 343.4952 53.47291 359.5951
8.870351 341.3209 54.48741 358.941
8.900565 338.3824 56.24851 357.7256
8.933898 335.7985 57.26702 357.0617
8.963334 333.1736 58.84231 356.2489
8.992135 331.395 61.29669 354.7538
9.021532 330.732 62.66092 353.7212
9.048877 329.6952 64.20105 352.4219
9.082211 329.2413 65.11748 351.4887
9.109982 328.097 65.99076 350.5488
9.140182 327.1898 66.13971 350.0733
9.169316 326.2815 65.97997 349.8641
9.198992 326.0779 65.73808 349.8035
9.232326 326.0378 65.03791 349.9651
9.26368 325.7975 63.95815 350.2008
9.29162 325.4728 62.35213 350.714
9.320232 325.2569 60.79173 351.1791
9.35275 325.1737 59.82272 351.2953
9.386083 325.1533 58.65296 351.1169
9.416809 324.928 57.74498 350.9171
9.445622 324.3094 56.90515 350.8929
9.471897 323.7122 56.22858 350.9649
9.50523 323.4476 55.82505 351.1062
9.538564 322.7733 55.31977 351.3847
9.571528 322.5177 55.07256 351.8776
9.600321 322.6785 54.83295 352.4967
9.628537 322.4887 54.32687 353.1702
9.656672 322.4152 53.9447 353.804
9.690005 322.5835 53.58134 354.7657
9.71598 322.8816 53.62832 354.9498
9.743268 323.2879 53.80796 354.6596
9.775304 323.5839 53.74126 354.4247
9.802822 323.8546 53.49484 354.4007
9.828871 324.0919 53.37038 354.2936
9.862205 324.275 53.24874 354.1409
9.891033 324.4193 53.02363 353.905
9.919485 324.5751 52.998 353.3846
9.947226 324.7023 52.89631 353.0523
9.974389 324.5994 52.65308 352.8
10.00772 324.272 52.42496 352.6068
10.03637 323.6841 52.07757 352.5173
10.06391 323.2884 51.61196 352.618
10.09235 322.8933 51.41701 352.4508
10.12568 0 0 0
