時間[s] x軸周り[deg] y軸周り[deg] z軸周り[deg]
0 0 0 0
0.02 0 0 0
0.05333333 345.6503 359.4125 0.3425802
0.08666666 346.1353 359.5492 0.4166348
0.12 346.1809 359.5813 0.4531693
0.1496794 345.9471 359.3977 0.5460824
0.1830127 345.9531 359.1109 0.6077887
0.2120185 346.2376 358.9186 0.6205659
0.2417371 346.3025 358.9406 0.6724056
0.2714615 346.2978 358.9816 0.7209907
0.3015034 346.3067 358.9919 0.7459891
0.3296033 346.2848 359.0137 0.7614388
0.3569046 346.2917 359.0315 0.763324
0.3880764 346.2796 359.0284 0.7349831
0.4214098 346.2609 358.9991 0.7312909
0.4530109 346.1125 358.9336 0.7363368
0.4830485 346.0984 358.8534 0.7800168
0.5131758 346.3415 358.7798 0.7509562
0.5442231 346.6053 358.7407 0.7016826
0.576229 346.6497 358.7643 0.6699981
0.6081917 346.6563 358.8586 0.614185
0.6390461 346.8375 358.9458 0.570478
0.6719679 347.0182 359.0318 0.5832292
0.705002 347.0421 359.1386 0.5610663
0.7321703 347.015 359.2162 0.5505755
0.7605386 347.023 359.2361 0.5935583
0.7897009 346.9685 359.1999 0.5972636
0.8230342 346.9044 359.1577 0.5722197
0.8519798 346.8517 359.0734 0.6045728
0.8800346 346.8405 358.9961 0.5683655
0.9102676 346.9475 358.9482 0.5300165
0.9372164 347.0236 358.9418 0.5194525
0.9641873 347.0829 359.0201 0.5172999
0.9938142 347.0904 359.0756 0.5432599
1.024295 347.1862 359.1915 0.5799034
1.052322 347.3626 359.2309 0.5860026
1.079373 347.5119 359.2214 0.5690413
1.108835 347.6781 359.1938 0.5644578
1.138096 347.8007 359.1802 0.5797922
1.16603 348.0272 359.1657 0.6338716
1.192371 348.2167 359.1687 0.6518016
1.221113 348.4424 359.2111 0.6629681
1.24972 348.7018 359.27 0.6414448
1.283054 349.1591 359.3334 0.5558452
1.313703 349.7333 359.4141 0.4625231
1.346937 350.5367 359.5924 0.4246608
1.378815 351.4116 359.8616 0.413928
1.407391 352.2144 0.1012546 0.3575596
1.436572 352.719 0.1926837 0.4668254
1.46745 353.3292 0.417848 0.6234854
1.500783 353.8137 0.6482837 0.4879505
1.53055 354.2931 0.6893055 0.5087698
1.559728 355.2608 0.7459509 0.6764963
1.589846 355.6671 0.8033903 0.6822672
1.6201 356.0038 0.8913786 0.6122133
1.648902 356.2938 0.8785107 0.6516544
1.674823 356.3201 0.8604881 0.6890808
1.703196 356.1902 0.8358163 0.6257984
1.732906 356.0664 0.8597734 0.6563424
1.76594 355.8932 0.9056937 0.6804956
1.794509 355.927 0.9867855 0.5761527
1.826814 356.1472 1.026113 0.5231208
1.858325 355.8043 0.9122531 0.6783565
1.885814 355.6403 0.8914959 0.5729092
1.91303 355.8264 0.9470682 0.3594966
1.942569 355.8071 0.9582739 0.3665893
1.97189 355.2245 0.9912756 0.4314534
2.000384 355.1566 1.138368 0.3787217
2.0267 355.007 1.177819 0.4125226
2.057852 354.3137 1.141874 0.4422314
2.086053 354.2472 1.176526 0.3799892
2.113549 354.6469 1.270537 0.1791977
2.143115 355.0046 1.297926 0.1877771
2.176448 355.01 1.269319 0.2496716
2.20591 355.2396 1.257353 0.2794268
2.234568 355.4642 1.237294 0.1981552
2.267901 355.509 1.179555 0.1471506
2.299023 355.6014 0.8754943 0.3438449
2.327504 355.5225 0.8582575 0.3330444
2.360837 355.6019 1.03563 0.121636
2.387991 355.6851 1.284203 0.0999105
2.416677 355.4401 1.373158 0.1172874
2.446846 355.3618 1.402285 0.05192973
2.474795 355.6006 1.323354 0.07422148
2.508128 355.8822 1.173435 0.02315784
2.541461 355.9065 1.029796 0.105554
2.569882 355.8553 0.861069 0.1640571
2.596758 355.8164 0.7736212 0.1511472
2.626681 355.8583 0.6889407 0.07342139
2.65406 356.0002 0.5144541 0.2263079
2.683107 356.0565 0.4179418 0.255801
2.709923 355.9787 0.3642154 0.01500476
2.737442 356.2756 0.1553983 0.158098
2.769683 356.6098 359.9734 0.3912458
2.79806 356.8099 359.8963 0.2563436
2.831393 356.8884 359.8458 0.1634133
2.858352 356.9551 359.7411 0.3211669
2.887433 356.8835 359.6827 0.2678039
2.917526 356.949 359.6107 0.292278
2.946273 356.9802 359.5686 0.6826292
2.972382 356.7937 359.5471 0.8794214
3.00145 356.5617 359.6016 0.9175851
3.031392 356.7057 359.6365 0.8724228
3.058088 357.2141 359.566 1.006553
3.083961 357.2619 359.4724 1.168183
3.115144 356.7061 359.351 1.230998
3.146621 356.2402 359.3058 1.266349
3.176129 355.7716 359.3175 1.154885
3.203446 355.6277 359.4041 0.9698517
3.232787 355.6583 359.4233 0.9840798
3.261408 355.7683 359.4346 1.156138
3.292655 355.7997 359.4491 1.370081
3.321039 355.5704 359.5092 1.380901
3.351697 355.085 359.6549 1.316904
3.379904 354.4947 359.8727 1.348234
3.408289 354.2708 0.1172917 1.304486
3.436328 354.2157 0.6284749 1.190871
3.465269 354.2409 1.126926 1.10838
3.494489 354.3561 1.957199 0.9631655
3.522428 354.3543 2.581076 0.8867363
3.554735 354.3922 3.2692 0.9311979
3.583982 354.3486 4.21986 1.117287
3.613938 354.2675 5.147648 1.257295
3.644697 353.9759 6.16298 1.280721
3.67349 353.6724 6.932634 1.196983
3.701439 353.3078 8.158387 0.9884034
3.730928 353.2574 9.063109 0.718025
3.761043 353.3208 10.16921 0.3593906
3.787123 353.4264 11.36813 0.133453
3.820457 353.5346 12.1703 0.06816649
3.849367 353.5699 13.34793 359.9185
3.877703 353.4247 14.37076 359.8734
3.905237 353.3874 15.00793 359.9153
3.93528 353.4391 15.56405 359.9275
3.965101 353.6064 15.81568 359.7414
3.991204 353.7962 15.76235 359.6236
4.018005 354.1194 15.46075 359.4761
4.048376 354.3508 15.07301 359.3384
4.077062 354.5886 14.27356 359.1259
4.104396 354.7992 13.53912 358.9852
4.134662 355.0911 12.40086 358.8814
4.16287 355.3978 10.74159 358.9389
4.190775 355.5604 9.387729 358.9551
4.217692 355.5584 7.425019 359.034
4.246536 355.6445 6.155035 359.1784
4.27585 355.9675 4.252872 359.5461
4.304802 356.3461 3.105112 359.7756
4.33542 356.8516 1.562331 359.9797
4.36094 357.4059 0.1488948 0.1869369
4.389528 357.7607 359.2554 0.3346447
4.417437 358.128 358.251 0.4409899
4.445786 358.2872 357.5833 0.4991157
4.472469 358.2321 357.1225 0.655032
4.505803 357.9839 356.6088 0.8777207
4.539136 357.9641 356.3463 0.9888906
4.572469 358.0146 356.1642 0.9424998
4.601179 358.1248 356.0559 1.093102
4.629549 358.464 356.1189 1.2752
4.658466 358.8045 356.2463 1.404006
4.685587 358.8169 356.4131 1.43134
4.712296 358.7328 356.661 1.452586
4.739975 358.6641 356.813 1.528623
4.768975 358.4563 356.9234 1.704447
4.797494 358.4227 356.9378 1.771831
4.823033 358.4928 356.8899 1.97422
4.852049 358.5219 356.8612 2.013011
4.884416 358.5357 356.8752 1.894777
4.911241 358.212 356.9251 1.832402
4.938531 357.9846 356.9805 1.786339
4.967619 357.7639 357.0419 1.771011
4.995953 357.5668 357.2068 1.720945
5.022425 357.6485 357.4988 1.521335
5.051193 357.6542 357.6792 1.548861
5.078845 357.5608 357.8338 1.573758
5.109663 357.5695 357.9581 1.572635
5.141408 357.5175 358.0103 1.551089
5.168601 357.4897 358.0448 1.44857
5.197681 357.4979 358.0636 1.472667
5.226245 357.5202 358.1876 1.451701
5.254118 357.5518 358.29 1.477015
5.281738 357.5446 358.4351 1.573869
5.309776 357.5084 358.5272 1.582575
5.338079 357.4442 358.6124 1.575222
5.366083 357.4372 358.6309 1.617954
5.396793 357.4866 358.6432 1.648207
5.426014 357.5901 358.6692 1.526495
5.455371 357.6197 358.6831 1.386522
5.483435 357.5342 358.7206 1.317734
5.510434 357.4889 358.7908 1.312732
5.543768 357.5005 358.8925 1.250032
5.573542 357.3611 359.038 1.235736
5.60118 357.1497 359.2136 1.306077
5.63054 356.9507 359.4467 1.400502
5.66095 356.8745 359.6095 1.435338
5.689981 356.8126 359.8742 1.391184
5.718499 356.7845 0.08069438 1.356967
5.745848 356.8155 0.3055873 1.348291
5.774007 356.8133 0.4844072 1.259293
5.804017 356.7508 0.6174316 1.206458
5.83375 356.6949 0.7411023 1.202438
5.861412 356.7159 0.8168193 1.202314
5.890004 356.7571 0.87055 1.1809
5.923337 356.8091 0.9011649 1.15355
5.950457 356.8332 0.86949 1.168401
5.982844 356.9299 0.7912784 1.041522
6.011846 357.0802 0.721936 0.8736151
6.041492 357.3197 0.6473486 0.8634932
6.06786 357.5667 0.7381955 0.9028674
6.093928 357.6974 0.9092028 0.8477771
6.127262 357.7246 0.9884772 0.9081993
6.160595 357.5173 0.890889 1.081979
6.189095 357.4489 0.5949501 1.173667
6.21536 357.5769 0.2270939 1.40658
6.244594 357.7379 359.8749 1.471174
6.273283 357.9304 359.5274 1.42675
6.300217 358.0182 359.2021 1.398635
6.328967 357.9702 359.0476 1.450595
6.359369 357.9677 358.9798 1.500914
6.38778 358.0738 359.045 1.573748
6.415126 358.2 359.2195 1.712405
6.445092 358.1436 359.2972 1.839779
6.478425 358.1106 359.3917 2.013832
6.506605 358.4337 359.5912 2.083061
6.537832 358.6165 359.7697 2.024091
6.566626 358.5819 0.08530798 1.891003
6.595838 358.5686 0.2931519 1.780157
6.624385 358.4478 0.5395 1.609746
6.653296 358.2701 0.6966477 1.502344
6.67978 358.2031 0.7295055 1.482533
6.710071 358.2268 0.7258884 1.459762
6.738004 358.361 0.6729025 1.384311
6.765246 358.4521 0.6080673 1.252918
6.794103 358.3153 0.5145367 1.237574
6.822315 358.3388 0.3205034 1.159766
6.853965 358.5259 0.3409321 1.02998
6.885837 358.3151 0.329033 1.068511
6.912999 358.1501 0.1952397 1.086413
6.945945 358.6007 0.2024609 0.9895583
6.975235 358.4414 0.1880053 1.119746
7.004958 358.3494 0.1452526 1.217193
7.036191 358.5168 0.1233587 1.233732
7.063885 358.6074 0.008536678 1.430601
7.092957 358.6393 359.9198 1.537096
7.121794 358.686 359.7584 1.521688
7.149389 358.6767 359.6272 1.578468
7.178522 358.5868 359.4489 1.719262
7.208517 358.7211 359.2881 1.827771
7.238979 358.7796 359.234 1.79473
7.266277 358.7532 359.1541 1.860077
7.295858 358.6821 359.1489 1.741709
7.326253 358.5802 359.1585 1.689141
7.355224 358.4754 359.2153 1.71387
7.38257 358.4156 359.2715 1.714115
7.411897 358.4752 359.2951 1.737952
7.442738 358.5837 359.2563 1.720971
7.476071 358.8334 359.1823 1.609718
7.503528 358.815 359.1175 1.543019
7.532855 358.8294 359.0911 1.544611
7.560091 358.8977 359.1399 1.551343
7.586686 358.9823 359.1871 1.497792
7.61456 358.9737 359.2566 1.479388
7.646351 358.8991 359.2124 1.447394
7.675354 358.8356 359.2029 1.335407
7.702797 358.7682 359.1655 1.293121
7.730239 358.559 359.1252 1.29902
7.759731 358.6518 359.145 1.384731
7.792693 358.7931 359.1807 1.463331
7.822297 358.5094 359.2205 1.528544
7.851085 358.4483 359.1056 1.501802
7.879305 358.5468 359.0384 1.423927
7.910045 358.5769 359.0234 1.429242
7.937512 358.8246 359.0106 1.500365
7.96502 359.0305 359.0161 1.488449
7.998022 359.1709 358.9813 1.4379
8.026937 358.9251 358.903 1.535977
8.056676 358.7956 358.8569 1.535302
8.084686 358.8863 358.8461 1.643597
8.114003 358.9697 358.8032 1.766714
8.144346 358.7266 358.7753 1.823205
8.173382 358.7499 358.7209 1.876141
8.2017 358.8316 358.6677 1.913756
8.234235 359.0858 358.5844 1.973699
8.263989 358.9116 358.5898 1.851606
8.293389 358.552 358.4944 1.843168
8.324346 358.4319 358.5033 1.901121
8.353435 358.3374 358.4672 1.996695
8.381804 358.2452 358.3605 1.992273
8.415138 358.352 358.3277 1.929949
8.443952 358.5587 358.2491 1.869377
8.477285 358.5486 358.2825 1.934801
8.510618 358.5234 358.4095 1.862997
8.540283 358.2184 358.4055 1.892356
8.569706 358.1389 358.3007 1.829047
8.60228 358.3411 358.2437 1.754355
8.631395 358.3753 358.248 1.796575
8.660473 358.4171 358.1595 1.89107
8.688556 358.6098 358.0432 1.939918
8.718481 358.7546 357.9611 1.959126
8.745933 358.9011 357.9279 1.934452
8.777239 358.8395 357.9345 1.963549
8.807281 358.7781 357.9329 2.023387
8.837719 358.7901 357.9395 2.122789
8.867467 358.8064 357.9251 2.183268
8.894837 358.7967 357.8511 2.227999
8.921511 358.8774 357.7829 2.135592
8.951575 358.927 357.7993 2.00747
8.980083 358.7274 357.9394 1.936555
9.007203 358.6253 357.9717 1.892377
9.038657 358.4796 358.0166 1.887723
9.066995 358.5475 357.9272 1.914227
9.095382 358.728 357.9554 1.832802
9.123152 358.8094 358.0024 1.871309
9.151063 358.7701 358.0877 1.915201
9.182683 358.6446 358.1487 2.02255
9.21108 358.4719 358.1321 2.022347
9.242844 358.5688 358.1339 2.037902
9.270874 358.7608 358.2654 2.018226
9.298732 358.753 358.3319 2.091133
9.327652 358.722 358.3645 2.045889
9.354614 358.7493 358.489 2.03583
9.381954 358.7344 358.6158 2.100794
9.410995 358.6258 358.8759 2.076691
9.440869 358.6359 359.0745 1.91473
9.471237 358.5458 359.307 1.642729
9.50457 358.4318 359.531 1.529226
9.535497 358.4021 0.1350888 1.370327
9.567941 358.4689 1.123734 0.9864517
9.594593 358.2474 2.312023 0.6324179
9.621818 358.0743 2.966713 0.6087717
9.651186 357.7971 3.663101 0.7373925
9.684519 357.7404 3.964962 0.8214468
9.714753 357.7261 4.201337 0.9461042
9.742426 357.819 4.31853 0.9902759
9.773574 357.8815 4.375104 0.8630579
9.802513 357.9321 4.333373 0.8146251
9.834614 357.9365 4.408537 0.5967813
9.866564 357.6997 4.568789 0.4436792
9.897137 356.9669 4.650103 0.371192
9.926383 356.3656 4.733206 0.3065772
9.954342 355.636 4.894756 0.3702451
9.982692 355.3273 4.996192 0.4652152
10.01116 355.3299 5.070039 0.4138258
10.04223 355.2091 5.135495 0.4260252
10.07469 355.0948 5.119132 0.4879293
10.10315 354.7674 5.05487 0.5688482
10.13104 354.3634 5.010205 0.6727945
10.159 354.0968 5.008838 0.7869548
10.18785 353.822 5.149926 0.5966291
10.21453 353.8289 5.263746 0.3251114
10.24245 353.7086 5.240224 0.3712187
10.27135 353.5542 5.138512 0.6695381
10.29974 353.4849 5.163723 0.6511449
10.33148 353.615 5.241658 0.4598866
10.36288 353.6352 5.178745 0.5434349
10.39232 353.8479 5.049409 0.7108477
10.4217 354.1253 4.955226 0.6620641
10.45059 354.284 4.804769 0.6025553
10.48026 354.518 4.672739 0.7934387
10.51058 354.6384 4.559011 0.8363281
10.53945 354.5087 4.383011 0.7408364
10.56699 354.572 4.236871 0.6702011
10.60033 354.7132 4.106151 0.6632534
10.62835 354.8692 3.897478 0.698257
10.65797 354.8889 3.674401 0.7073981
10.68955 355.058 3.539142 0.6933573
10.71819 355.3262 3.448208 0.7285469
10.74648 355.2822 3.549242 0.8483499
10.77429 355.1345 3.705834 0.9435197
10.80118 355.0347 3.907494 0.9757801
10.83066 354.996 3.945493 1.056232
10.86163 355.012 3.892629 0.9877865
10.88993 355.205 3.839322 0.8612304
10.91858 355.1941 3.841483 0.8460757
10.94762 355.2334 4.008175 0.7798442
10.97687 355.2105 4.098465 0.8005597
11.00442 355.0692 4.289261 0.8345866
11.03576 354.9507 4.438612 0.8110504
11.06909 354.7621 4.685358 0.8378173
11.09924 354.7005 4.865565 0.8000511
11.13104 354.7194 5.020757 0.6592104
11.1593 354.8281 5.149197 0.5475137
11.18925 354.8979 5.164525 0.5514977
11.22022 354.8829 5.19523 0.5414251
11.24811 354.8187 5.051699 0.5171828
11.27625 354.8336 4.973886 0.4313834
11.30569 354.8434 4.961163 0.4918476
11.33902 354.8474 4.938585 0.5260624
11.36626 354.9312 4.926316 0.4961476
11.3938 354.909 4.890423 0.4880585
11.42307 354.8306 4.860928 0.5124137
11.45389 354.8461 4.839783 0.535287
11.48198 354.9743 4.848894 0.5422635
11.51137 355.0461 4.804882 0.5765038
11.54134 355.0614 4.76207 0.5660107
11.5691 355.0732 4.726472 0.5713253
11.59789 355.0731 4.710893 0.5659152
11.629 355.0924 4.69178 0.5928624
11.66233 355.109 4.651965 0.6262046
11.68993 355.1068 4.665191 0.6182743
11.72087 355.137 4.619817 0.640415
11.75015 355.1525 4.553627 0.6862574
11.7794 355.1404 4.554279 0.5768423
11.80843 355.1294 4.519689 0.6434036
11.83626 355.1495 4.503687 0.6251204
11.86378 355.1118 4.53329 0.5744272
11.89467 355.0902 4.539467 0.5979106
11.92472 355.1921 4.550922 0.585057
11.95255 355.1692 4.55487 0.6162259
11.98 355.0713 4.52943 0.6526612
12.0097 355.0079 4.451476 0.7173337
12.04303 355.0422 4.414807 0.6593226
12.07123 355.1389 4.412945 0.5804775
12.09743 355.1451 4.47034 0.6227058
12.12648 355.1481 4.497468 0.6732361
12.1545 355.1474 4.481744 0.6681427
12.1869 355.1858 4.451917 0.6347633
12.21351 355.2277 4.366375 0.606551
12.24395 355.2386 4.311356 0.5962724
12.27477 355.1229 4.130587 0.6397815
12.30229 355.3414 4.080614 0.5134036
12.33546 355.7179 4.124248 0.3946692
12.3643 355.6301 3.95746 0.6682703
12.39354 355.7462 3.554601 1.034311
12.42687 356.1499 3.339232 1.050919
12.4545 356.5179 3.160658 0.9554507
12.48227 356.5741 2.93191 1.120228
12.51067 356.6323 2.657248 1.369309
12.5372 356.5966 2.40006 1.554307
12.56305 356.6691 2.114801 1.754924
12.59101 356.9684 1.859412 1.80888
12.61996 357.245 1.709456 1.775355
12.65016 357.4955 1.620906 1.569219
12.68128 357.759 1.602113 1.613691
12.71126 357.6964 1.595681 1.739251
12.74115 357.5827 1.693491 1.755399
12.76937 357.3327 1.760379 1.825356
12.80156 357.0825 1.834884 1.799997
12.83224 356.8481 1.939861 1.851973
12.8639 356.9001 2.072635 1.872247
12.89062 356.9781 2.153844 1.737929
12.92058 356.8925 2.101873 1.676272
12.95186 356.9231 2.047663 1.516555
12.98422 357.1435 2.031044 1.272289
13.01447 356.9581 2.105966 1.131202
13.04634 357.0084 2.17376 0.9556945
13.07756 357.2176 2.273283 0.7852229
13.10838 357.127 2.400285 0.5906577
13.13699 356.8659 2.580824 0.5708256
13.16646 356.814 2.686423 0.6159821
13.19906 356.9144 2.754019 0.6773928
13.22889 356.6248 2.638438 0.6811466
13.25752 356.3178 2.411179 0.6447202
13.28785 356.3844 2.326777 0.613436
13.31658 356.8112 2.275365 0.6483727
13.34431 356.8835 2.291031 0.744727
13.37443 356.9134 2.329777 0.7551131
13.40091 357.04 2.366927 0.7511479
13.4334 357.0432 2.318884 0.7248457
13.46317 356.9192 2.186586 0.6962454
13.49206 356.8003 2.120153 0.6363493
13.52136 356.8136 2.144926 0.6182519
13.55139 356.8282 2.233499 0.7353259
13.5812 356.638 2.322426 0.7800943
13.60969 356.5844 2.379765 0.7506195
13.63723 356.5918 2.416461 0.8212309
13.66662 356.6742 2.459196 0.695525
13.69706 356.8463 2.47203 0.5896889
13.72814 356.8155 2.430073 0.6681928
13.75521 356.6866 2.389319 0.6612563
13.78482 356.5996 2.350786 0.7221426
13.81815 356.5278 2.319272 0.7553329
13.8456 356.5034 2.325999 0.7305843
13.87257 356.5273 2.329986 0.7684525
13.90076 356.5843 2.271364 0.8334742
13.93409 356.7815 2.236392 0.7557727
13.96394 356.8529 2.252954 0.6729675
13.99165 356.6909 2.219248 0.7995557
14.02109 356.5865 2.246988 0.8323429
14.0487 356.5182 2.302777 0.7505333
14.08203 356.45 2.298176 0.6863284
14.11537 356.5125 2.301111 0.6307693
14.1487 356.6497 2.354784 0.6761266
14.18203 356.3774 2.396654 0.6324771
14.212 356.2516 2.295576 0.6477325
14.23999 356.2388 2.30292 0.6220402
14.26977 356.2722 2.291308 0.5654286
14.3031 356.3015 2.345085 0.5090828
14.329 356.189 2.444122 0.5867762
14.36185 356.0745 2.563137 0.5672944
14.39518 356.1109 2.54944 0.5950385
14.42565 356.1227 2.45834 0.5843827
14.45898 356.1001 2.32298 0.5887409
14.48485 356.1494 2.315946 0.4960867
14.51743 356.179 2.330193 0.5293172
14.54457 356.1155 2.380981 0.5893162
14.57049 356.1457 2.411477 0.5583363
14.60086 356.1568 2.414352 0.5247574
14.6342 356.2443 2.422071 0.4865181
14.66256 356.1957 2.451147 0.4938793
14.69063 356.075 2.450204 0.5526773
14.71718 356.0884 2.4706 0.5429929
14.74665 356.1609 2.509646 0.5014573
14.77998 356.1044 2.499162 0.5365411
14.81332 356.0866 2.441639 0.5855629
14.84373 356.2036 2.387995 0.55505
14.87384 356.126 2.360565 0.5457042
14.90249 355.9903 2.359435 0.5877641
14.93583 356.0748 2.396998 0.6396589
14.96248 356.2392 2.396028 0.6247596
14.99303 356.2532 2.355853 0.6117951
15.0221 356.2299 2.308808 0.6149831
15.05239 356.1385 2.285643 0.6673891
15.08573 356.1812 2.260925 0.6704916
15.11599 356.128 2.26402 0.6794043
15.14932 356.1606 2.235831 0.7008507
15.17909 356.2707 2.182383 0.6549613
15.20749 356.3048 2.17205 0.641475
15.24082 356.2926 2.148625 0.6176003
15.2699 356.2139 2.242154 0.6683761
15.30097 356.0959 2.324533 0.6763601
15.32785 356.0238 2.260473 0.7789581
15.35833 356.0364 2.234328 0.6403294
15.39166 356.0858 2.139948 0.5981491
15.41841 356.1153 2.115688 0.6551042
15.4454 356.1838 2.238492 0.5523274
15.47328 356.1488 2.230784 0.5771846
15.50528 356.0905 2.312825 0.5214247
15.53862 355.9958 2.343244 0.5031391
15.56547 355.9908 2.372658 0.5403492
15.59555 356.0103 2.346442 0.5908424
15.62454 355.9803 2.361927 0.5189063
15.65224 356.0651 2.298246 0.503389
15.68557 356.148 2.297222 0.5333517
15.71891 356.1615 2.302543 0.5512469
15.75205 356.0708 2.287789 0.5011587
15.77985 356.0137 2.340243 0.4888717
15.81269 356.0026 2.408002 0.482519
15.84602 356.0526 2.463244 0.5233411
15.87493 356.0487 2.485232 0.5655789
15.9039 355.9993 2.385923 0.5822359
15.93134 355.9776 2.278409 0.5949001
15.96052 355.9472 2.262866 0.6176729
15.99386 355.9656 2.24926 0.5999463
16.02262 356.0435 2.362153 0.6366382
16.05071 355.9286 2.390331 0.6450362
16.07937 355.9239 2.373944 0.6160153
16.11212 355.9523 2.388225 0.5787075
16.14545 356.0225 2.361687 0.5765195
16.17359 356.1979 2.429871 0.5454743
16.20384 356.3594 2.488842 0.541175
16.23718 356.2893 2.428171 0.5654649
16.26553 356.2028 2.452224 0.3692934
16.29886 356.0982 2.48707 0.4626056
16.32955 356.1418 2.581633 0.4191013
16.35888 356.2071 2.540014 0.4554674
16.38745 356.217 2.440593 0.448569
16.41587 356.2003 2.370834 0.3956612
16.44921 356.1103 2.358293 0.4172424
16.48129 356.108 2.382061 0.4881599
16.51149 356.0217 2.418175 0.4933074
16.53943 356.0368 2.42151 0.4455322
16.56858 356.0806 2.431466 0.4623556
16.60191 356.1133 2.407359 0.4633017
16.62932 356.1917 2.394089 0.3910754
16.65527 356.2278 2.442245 0.3874636
16.6834 356.2749 2.514059 0.3948473
16.71674 356.1725 2.58917 0.5231341
16.75007 355.9531 2.551304 0.5641923
16.77695 356.0952 2.462303 0.524928
16.8064 356.2791 2.381986 0.4900632
16.83673 356.2209 2.36136 0.5308435
16.86497 356.291 2.406067 0.5102433
16.89831 356.3275 2.437202 0.456263
16.93164 356.294 2.445237 0.4200604
16.96158 356.0343 2.52158 0.4506625
16.98797 356.0414 2.564982 0.4976804
17.01921 356.198 2.569013 0.4375106
17.05254 356.3235 2.532664 0.393547
17.08256 356.2758 2.501804 0.3542662
17.11102 356.238 2.494595 0.4303475
17.13996 356.1526 2.471189 0.3757028
17.17213 356.0998 2.516738 0.3070399
17.20547 356.066 2.527758 0.4203486
17.23307 356.1602 2.52685 0.3343141
17.26098 356.3315 2.453887 0.3608218
17.29303 356.3181 2.445525 0.3232681
17.32166 356.2915 2.477231 0.2981625
17.35499 356.0723 2.517332 0.383086
17.38214 355.9646 2.541454 0.385745
17.41118 355.9903 2.535479 0.3081544
17.44029 356.0859 2.522938 0.2881307
17.4676 356.1488 2.507416 0.3449299
17.50093 356.0581 2.509109 0.3949806
17.53345 356.0405 2.492266 0.3458323
17.56264 356.0902 2.476992 0.2580863
17.59073 356.1006 2.453691 0.2758587
17.61852 356.0905 2.496614 0.3380847
17.65185 356.0175 2.517884 0.3567339
17.68519 355.9718 2.519424 0.3476633
17.7124 355.9319 2.485869 0.3118888
17.74288 355.9245 2.478174 0.2997306
17.77224 355.9869 2.451899 0.3492886
17.80557 355.9831 2.468498 0.3860722
17.83521 355.9315 2.472157 0.350136
17.86329 355.9438 2.434042 0.3451395
17.89237 355.8167 2.45943 0.3782463
17.92445 355.7512 2.454371 0.3994115
17.95778 355.8642 2.459738 0.3874402
17.98681 355.9493 2.440082 0.3862846
18.01669 355.7501 2.371861 0.462939
18.04874 355.7177 2.348896 0.4659656
18.07622 355.8721 2.355204 0.3944509
18.10955 355.8354 2.345235 0.4913716
18.14288 355.8695 2.347048 0.4888026
18.17142 355.9219 2.370857 0.4836492
18.19881 355.9415 2.357994 0.4282184
18.23214 355.9152 2.348785 0.4448308
18.26548 355.8504 2.381891 0.449985
18.29514 355.8593 2.371148 0.4953273
18.32437 355.8351 2.380017 0.4069588
18.35308 355.9467 2.330667 0.4198162
18.38247 356.0008 2.327904 0.4140808
18.4158 356.1208 2.329253 0.3600317
18.44872 356.0971 2.370232 0.3325909
18.47775 355.9325 2.448114 0.3482196
18.50757 355.935 2.525225 0.394182
18.53847 355.9244 2.485613 0.4298183
18.57181 355.7761 2.347147 0.4777111
18.60032 355.7745 2.252401 0.47289
18.62997 355.9611 2.224857 0.4717343
18.65815 356.0244 2.231144 0.4200878
18.68548 355.9582 2.288341 0.4287205
18.71881 355.8374 2.383043 0.4694179
18.75215 355.7112 2.42472 0.4589284
18.78145 355.652 2.47017 0.4646146
18.81385 355.7185 2.39549 0.5128921
18.84518 355.8734 2.360528 0.4548525
18.87852 355.9659 2.328875 0.4081245
18.9082 355.9793 2.327981 0.3942875
18.9364 355.7773 2.376258 0.4121941
18.96445 355.779 2.404424 0.4764273
18.99587 355.8012 2.37465 0.3990997
19.02921 355.7143 2.382453 0.3399298
19.06208 355.7909 2.460823 0.3993529
19.08945 355.8077 2.458724 0.3950766
19.11816 355.7537 2.405781 0.393986
19.14736 355.7917 2.367102 0.4167799
19.18069 355.8156 2.345169 0.407145
19.20784 355.773 2.361552 0.3736521
19.24117 355.7618 2.285303 0.4158911
19.2708 355.9036 2.314564 0.3332243
19.30413 356.0265 2.378689 0.3233107
19.33746 355.9354 2.514592 0.4062438
19.37012 355.801 2.557418 0.3696742
19.3997 355.6928 2.489729 0.3860032
19.42831 355.8321 2.431318 0.4058311
19.45764 355.95 2.386927 0.4114038
19.49097 355.9444 2.343523 0.3758785
19.51941 355.928 2.33915 0.4079915
19.54629 355.7624 2.395684 0.3986307
19.57483 355.7079 2.430914 0.386448
19.60448 355.6698 2.458534 0.464498
19.63781 355.7122 2.469152 0.4414594
19.66613 355.796 2.416365 0.4789846
19.69387 355.8484 2.353055 0.4516525
19.72241 355.8388 2.30637 0.4418435
19.75346 355.7816 2.292374 0.3640994
19.78679 355.8476 2.32251 0.3542202
19.81426 355.8593 2.331214 0.3606274
19.84324 355.8514 2.422091 0.3419208
19.87152 355.7822 2.458631 0.4425491
19.90089 355.7442 2.459722 0.4294336
19.93423 355.7709 2.463596 0.2765149
19.96691 355.7868 2.395041 0.3528425
19.99689 355.8369 2.36298 0.333961
20.02997 355.8186 2.361793 0.3778236
20.05738 355.8253 2.378827 0.3777664
20.09071 355.7817 2.433671 0.3321103
20.12404 355.6346 2.413413 0.3502289
20.15236 355.6722 2.393907 0.3646564
20.17956 355.6933 2.400211 0.3460303
20.20904 355.6979 2.342047 0.3678876
20.24238 355.8143 2.308812 0.3404804
20.27202 355.8358 2.296136 0.3280248
20.29781 355.5349 2.302402 0.4028604
20.32803 355.4493 2.348204 0.422242
20.35948 355.5076 2.431677 0.3916709
20.39281 355.6283 2.578665 0.4069926
20.4201 355.6745 2.721665 0.4526525
20.45006 355.8137 2.653828 0.4937986
20.47903 356.0195 2.513894 0.3774092
20.51018 356.0433 2.263064 0.4184642
20.54351 355.943 2.088977 0.4679422
20.57304 355.9709 1.992859 0.5037206
20.6024 356.0494 2.003419 0.5414254
20.62895 356.076 2.208905 0.5502485
20.6569 356.1445 2.466578 0.5485229
20.69023 356.1626 2.621738 0.5721068
20.7202 356.292 2.738428 0.4568024
20.74603 356.4017 2.748647 0.3061435
20.77393 356.2105 2.655157 0.2321624
20.80589 356.1169 2.597563 0.2965074
20.83922 356.1036 2.450248 0.2724807
20.87158 356.0506 2.310823 0.3106613
20.9 355.984 2.200789 0.3347828
20.92998 355.9921 2.142061 0.3900664
20.95953 356.0307 2.154178 0.4696974
20.99286 355.9193 2.1447 0.5817698
21.02003 355.8724 2.153449 0.6163477
21.0507 356.0714 2.225611 0.5888644
21.07941 356.0748 2.244671 0.5897752
21.10698 356.1686 2.316379 0.4990543
21.14032 356.35 2.343869 0.5485256
21.16934 356.2098 2.312159 0.5904716
21.19794 356.218 2.149256 0.4608491
21.22541 356.2648 2.191478 0.3160442
21.25487 356.3352 2.34635 0.3779087
21.2882 356.4061 2.423003 0.4395477
21.32063 356.5344 2.559365 0.317048
21.34718 356.1018 2.502767 0.4497797
21.37894 356.0429 2.396557 0.3889524
21.40891 356.1902 2.317263 0.4305632
21.44224 356.3127 2.282503 0.5383319
21.47157 356.4821 2.24905 0.4510884
21.50009 356.4349 2.295593 0.2435423
21.52883 356.4043 2.374382 0.1427741
21.55751 356.4684 2.580541 359.9935
21.59084 356.339 2.796274 359.9632
21.61786 355.9878 3.015068 359.9865
21.6481 355.9765 3.05448 0.05949242
21.67768 355.9826 2.937932 0.08212668
21.70577 356.0703 2.784225 0.1054449
21.73911 356.3262 2.666428 0.1758399
21.76764 356.3816 2.564345 0.1123787
21.80097 356.3741 2.623668 0.2304594
21.83064 356.2128 2.780204 0.3609215
21.86073 356.1014 2.775744 0.4217299
21.89406 356.1096 2.728983 0.4526305
21.92507 356.0537 2.724638 0.2747069
21.9559 355.8167 2.777378 0.1333011
21.98449 355.6988 2.795185 0.3114923
22.01445 355.6539 2.759932 0.4078837
22.04778 355.6122 2.730374 0.3903897
22.07486 355.4776 2.678156 0.4957455
22.10438 355.5088 2.662675 0.5411183
22.13495 355.6514 2.686548 0.3968543
22.16406 355.5992 2.666385 0.2646225
22.1974 355.59 2.730064 0.2341842
22.2252 355.5973 2.756398 0.2646045
22.25342 355.5453 2.892855 0.2936735
22.28105 355.4513 2.912623 0.2647953
22.31242 355.2972 2.926872 0.2197453
22.34575 355.3705 2.885662 0.1596276
22.37527 355.7103 2.910567 0.2188332
22.4065 356.0977 2.99239 0.2089463
22.43389 356.0701 2.907977 0.2920956
22.46134 355.6903 2.77317 0.2363529
22.49467 355.5026 2.781206 0.16071
22.52759 355.5797 2.815062 0.1792616
22.55743 356.052 2.797229 0.1241098
22.58813 356.3232 2.779537 -0.001529736
22.61852 356.5853 2.77538 359.9138
22.65185 356.429 2.938893 359.9099
22.67993 356.2783 2.949581 359.9578
22.70837 355.902 2.895814 359.9712
22.73669 355.5471 2.839125 0.07909629
22.76517 355.5456 2.878905 0.1092519
22.7985 355.6346 2.953807 0.04945639
22.83016 355.5732 2.923077 0.1148734
22.8635 355.3351 2.717481 0.2011577
22.89601 355.191 2.586293 0.2414327
22.92288 355.0953 2.472499 0.3103277
22.95621 355.1657 2.4345 0.3172297
22.98478 355.3506 2.480832 0.3328454
23.01282 355.7657 2.460684 0.3776971
23.04468 355.5772 2.349717 0.5080336
23.07364 355.3026 2.413347 0.5168415
23.10697 355.1998 2.449906 0.5598915
23.13974 355.1381 2.395703 0.6173944
23.16774 355.352 2.410506 0.469417
23.194 355.6351 2.444454 0.4685535
23.22259 355.9554 2.483741 0.4721104
23.25592 356.0438 2.507136 0.4293487
23.28234 356.1344 2.506213 0.4148362
23.31021 356.1973 2.518675 0.344578
23.34228 356.166 2.493512 0.3299298
23.37118 355.9914 2.471191 0.392992
23.40452 355.8324 2.477618 0.4477528
23.43212 355.7708 2.506489 0.5216194
23.46211 355.6114 2.486614 0.4644778
23.49261 355.5078 2.502115 0.3381323
23.5231 355.5687 2.570618 0.2034864
23.55643 355.6334 2.629347 0.2244659
23.58663 355.5646 2.62501 0.270606
23.61995 355.4485 2.585239 0.3758015
23.65172 355.3731 2.519994 0.2868602
23.68505 355.2762 2.483849 0.3387579
23.71838 355.4541 2.431946 0.3437068
23.75171 355.628 2.453198 0.2685428
23.78355 355.9149 2.5522 0.232853
23.81688 355.9353 2.5919 0.1895027
23.84922 355.8854 2.614472 0.1895592
23.88256 355.7563 2.55892 0.1359727
23.90989 355.7067 2.553007 0.0985928
23.93783 355.7642 2.512563 0.2312718
23.96721 355.8392 2.493676 0.1635746
23.99787 355.7908 2.451266 0.1191494
24.0312 355.6463 2.469181 0.1648402
24.06453 355.5285 2.514358 0.1997608
24.09527 355.5453 2.668821 0.109118
24.12828 355.6592 2.745594 0.07128181
24.1582 355.7124 2.76224 0.07146174
24.19153 355.778 2.752495 359.9931
24.22028 355.765 2.707832 359.968
24.25002 355.6879 2.614123 359.9499
24.27672 355.6439 2.554623 359.9709
24.30686 355.5899 2.604451 359.924
24.34019 355.6443 2.67936 359.9588
24.37025 355.7261 2.779101 359.9257
24.40358 355.7798 2.942111 359.9471
24.43274 355.7796 2.897027 359.9926
24.46472 355.7382 2.784746 359.9837
24.49805 355.7534 2.651712 0.09424821
24.52826 355.9132 2.626006 0.0152444
24.56159 356.0024 2.531423 0.1228713
24.59226 355.9015 2.502849 0.06684078
24.62086 355.895 2.465787 0.09375812
24.65419 355.9834 2.4882 0.1370157
24.68156 356.0687 2.596959 0.08281955
24.71025 356.0923 2.604756 0.129308
24.73805 356.1124 2.579317 0.0807242
24.76572 356.1805 2.551023 0.06329525
24.79905 356.172 2.543525 0.1297975
24.82906 356.1713 2.556084 0.07281908
24.85999 356.1954 2.642793 359.9753
24.88831 356.1622 2.685977 0.0002842504
24.9154 356.2 2.724424 0.02674526
24.94873 356.2105 2.726691 0.0614097
24.97959 356.253 2.661815 0.09192424
25.00633 356.2223 2.569641 0.05253777
25.03967 356.3685 2.581012 0.05195406
25.07048 356.4742 2.677524 0.05682626
25.10381 356.437 2.761411 0.01296167
25.13714 356.354 2.811497 359.9859
25.16332 356.2809 2.856074 359.9776
25.1927 356.3962 2.88098 359.961
25.22125 356.465 2.835453 0.02255359
25.25459 356.5056 2.768613 359.9601
25.28435 356.4498 2.71179 359.9233
25.31424 356.2232 2.714483 359.9372
25.34483 356.0757 2.67641 0.08289593
25.37767 355.9871 2.602795 0.05038673
25.411 356.0569 2.566887 0.008980719
25.4421 356.1489 2.4773 0.1066158
25.47248 356.2767 2.628389 0.03288605
25.49909 356.2786 2.849889 0.09709407
25.52731 356.2331 3.009998 0.09721092
25.56064 356.1725 3.181905 0.1313613
25.59026 356.1955 3.120122 0.0819594
25.6184 356.3279 2.966938 359.8508
25.64522 356.3421 2.939481 359.7517
25.67536 356.3484 2.935497 359.7237
25.70869 356.2723 3.06179 359.7343
25.73663 356.1858 3.231546 359.7005
25.76409 355.9868 3.365399 359.7847
25.79253 355.8965 3.347541 359.8166
25.82579 356.0097 3.214684 359.8549
25.85913 356.0909 3.169466 0.055113
25.89246 356.0154 3.162367 0.1999602
25.92579 355.8417 3.062294 0.4256436
25.9543 355.8559 2.993623 0.2438439
25.98763 355.6326 3.117981 0.1729349
26.01532 355.5475 3.186489 0.2263036
26.04628 355.5427 3.159796 0.2119302
26.07415 355.5854 3.098006 0.2106197
26.10227 355.7157 3.083574 0.1226572
26.13561 355.9116 3.158317 0.1041695
26.16532 356.1877 3.323797 0.1247237
26.19364 356.2353 3.356028 0.2154481
26.22042 356.0841 3.28883 0.2361603
26.24959 355.9013 3.24567 0.2079596
26.28292 355.6854 3.090293 0.3561276
26.31593 355.8151 3.073245 0.3708511
26.34414 356.1531 3.060929 0.3990821
26.3759 356.2354 3.014014 0.4233991
26.40533 356.2469 2.920769 0.3611229
26.43867 356.0497 2.898074 0.4303721
26.472 355.9152 2.943835 0.5059488
26.50393 355.9569 2.982884 0.5074134
26.53338 356.071 2.980231 0.461948
26.56671 356.2159 2.997169 0.3547137
26.60005 356.3281 3.053592 0.2256277
26.6264 356.2434 3.125873 0.326473
26.65506 356.0182 3.141142 0.3862766
26.68462 355.9518 3.042881 0.3676506
26.71306 356.0364 2.97359 0.2644937
26.7464 356.1982 2.836635 0.2811706
26.77736 356.0748 2.762541 0.3369094
26.80561 355.8569 2.772296 0.3378118
26.83403 355.9085 2.844969 0.3188711
26.86737 356.0476 2.972535 0.26292
26.9007 356.0886 3.217231 0.1969547
26.93002 355.8344 3.460233 0.1755152
26.95812 355.4504 3.441098 0.1337424
26.99145 355.4038 3.365507 0.1032824
27.02137 355.5272 3.227992 0.2103463
27.0547 355.6645 3.119615 0.2169605
27.08803 355.8889 3.049512 0.2343609
27.11708 355.9282 3.035169 0.1310148
27.14547 355.7551 3.012317 0.1987045
27.17814 355.654 3.088121 0.1997874
27.21147 355.8702 3.113127 0.138305
27.2422 356.0516 3.12935 0.1474716
27.27253 356.1012 3.176895 0.1099433
27.30304 356.035 3.2007 0.1664114
27.33232 355.8697 3.139225 0.3054248
27.36565 355.858 3.092666 0.1935843
27.39483 355.9901 2.983623 0.1621525
27.42367 356.0954 2.99512 0.1797493
27.45209 356.0493 3.048065 0.191613
27.48543 355.9265 3.132571 0.2334395
27.51876 355.7728 3.152963 0.2834859
27.54881 355.7708 3.097928 0.2512807
27.58192 355.7904 3.000433 0.2321343
27.61526 355.8162 2.955208 0.2917084
27.64733 355.7805 2.922665 0.3249509
27.68066 355.7553 2.970455 0.3149092
27.71005 355.819 3.026058 0.2904843
27.7376 355.8515 3.127093 0.265547
27.76791 355.8618 3.202174 0.2706273
27.79777 355.8528 3.282395 0.237748
27.8311 355.8836 3.418177 0.1121451
27.86273 356.0151 3.597997 0.02433615
27.89123 356.1446 4.097129 359.8247
27.91957 356.3024 4.446446 359.7635
27.95175 356.5082 4.821311 359.7029
27.98508 356.6017 5.480391 359.563
28.01502 356.7014 6.297882 359.7914
28.04545 357.0082 7.355332 0.07298195
28.0729 357.1901 7.941282 0.2547944
28.09979 357.366 8.485534 0.351025
28.13312 357.3662 8.943615 0.4229929
28.163 357.3524 9.375755 0.5587801
28.19029 357.4209 9.69376 0.5075547
28.21736 357.3653 9.734081 0.3721556
28.24755 357.3047 9.567431 0.3082679
28.28088 357.3389 9.334506 0.249294
28.31368 357.3464 8.870201 0.1544913
28.34044 357.3369 8.302698 0.0367195
28.36868 357.2484 8.043356 359.9353
28.39744 357.2618 7.754603 359.8922
28.43077 357.3006 7.65201 359.8358
28.45808 357.3016 7.49647 359.8084
28.48795 357.0987 7.335315 359.6981
28.51824 357.0085 7.270237 359.5882
28.54964 357.0086 7.294755 359.5376
28.58298 356.9615 7.42913 359.5023
28.61114 356.9904 7.599071 359.4015
28.63923 357.2712 7.799761 359.2018
28.67191 357.3714 7.825259 359.1454
28.70344 357.509 7.848722 359.215
28.73677 357.688 7.78331 359.3151
28.76419 357.7953 7.694605 359.3979
28.79335 357.782 7.383698 359.4973
28.82014 357.6877 7.088772 359.5317
28.8495 357.8438 6.683425 359.3597
28.88283 357.762 6.355052 359.2962
28.91047 357.557 5.919574 359.2887
28.93734 357.5063 5.215381 359.0447
28.96645 357.5009 4.876992 358.9741
28.99978 357.3219 4.573927 358.923
29.03311 357.4429 4.338491 358.9952
29.05995 357.4575 4.114933 359.0169
29.08806 357.6414 3.699366 359.0285
29.11714 357.9097 3.520715 359.0066
29.14618 358.1825 3.270857 359.0695
29.17952 358.2133 3.094888 359.1154
29.20837 358.2146 2.879992 359.2396
29.23719 358.2283 2.705335 359.291
29.26398 358.334 2.635399 359.3253
29.29063 358.3117 2.614637 359.3263
29.32397 358.2341 2.674933 359.3136
29.3573 358.0624 2.714669 359.3837
29.39063 357.7066 2.794142 359.3525
29.41679 357.7606 2.746715 359.5036
29.44705 357.2635 2.708832 359.5522
29.48038 356.7871 2.624171 359.6614
29.50746 356.6524 2.524108 359.9325
29.53363 355.9794 2.480798 0.001517957
29.56476 355.6067 2.462048 0.02423035
29.59566 355.3813 2.307898 0.1824775
29.629 355.4186 2.164385 0.2879206
29.65803 355.0287 2.056425 0.3567048
29.68807 354.4647 1.771394 0.4094825
29.71641 354.3199 1.44152 0.467767
29.74301 353.9597 1.19066 0.4934194
29.77634 353.7875 1.040609 0.4097716
29.80482 353.7905 0.8314319 0.4832299
29.83243 353.7667 0.6697494 0.7397819
29.86515 353.7715 0.6549298 0.7818889
29.89368 353.4991 0.6814744 0.9631863
29.92701 353.2772 0.6940078 1.161696
29.95531 353.1569 0.7246223 1.140188
29.98276 353.1106 0.9236521 0.8614683
30.00915 353.17 1.064908 0.7604966
30.03839 353.2803 1.33068 0.7614952
30.07172 353.314 1.494429 0.7700366
30.10083 353.5168 1.815937 0.6984556
30.12926 353.6993 2.35491 0.5163906
30.1581 353.4655 2.750145 0.3473017
30.18859 353.2188 3.501458 0.2397239
30.22193 353.2609 3.994074 0.2910773
30.24888 353.4992 4.546713 0.418071
30.27694 353.7668 4.959749 0.6046647
30.30548 353.8106 5.28604 0.63912
30.33575 353.8801 5.438773 0.5328786
30.36909 354.1135 5.589877 0.3977387
30.39725 354.1824 5.611217 0.3560367
30.42544 353.9811 5.610607 0.1876108
30.45233 353.8135 5.590041 0.1485218
30.48296 353.7756 5.490278 0.2180195
30.51629 353.7161 5.486736 0.1518162
30.54472 353.8329 5.445493 0.1880214
30.57331 353.8732 5.663993 0.2078298
30.60556 354.0357 5.890059 0.2133138
30.63486 354.0987 6.115786 0.3023252
30.6682 354.0578 6.350869 0.2239088
30.69541 353.9473 6.612297 0.1776878
30.72486 353.7548 6.798007 0.3076985
30.75457 353.7061 6.886442 0.2355733
30.78432 353.7187 6.915223 0.2009358
30.81765 353.6931 6.87394 0.3028927
30.84502 353.7625 6.797174 0.2608756
30.87441 353.885 6.694892 0.1498305
30.90461 353.9655 6.629332 0.1336416
30.93438 354.0079 6.562617 0.1748204
30.96771 354.0031 6.578858 0.1342741
31.00012 353.9192 6.558578 0.1632662
31.0305 353.855 6.490908 0.2316972
31.05713 353.9995 6.426046 0.2173501
31.08553 354.172 6.364283 0.2075016
31.11886 354.2184 6.343018 0.2432869
31.15051 354.2225 6.294909 0.2092347
31.17683 354.4823 6.204581 0.1324797
31.20357 354.6035 6.128283 0.08874016
31.23466 354.5969 6.007257 0.08652612
31.26799 354.6596 5.959127 0.1384959
31.29639 354.747 5.946831 0.160378
31.32512 354.9608 5.956061 0.2981434
31.35846 355.0198 5.924696 0.3422016
31.38837 355.2917 5.899124 0.1739537
31.4217 355.3648 5.949279 0.1500632
31.45325 355.3957 6.01997 0.1036468
31.48296 355.4572 6.228576 0.1768655
31.51444 355.4711 6.274817 0.2531701
31.54281 355.4914 6.244424 0.1737794
31.57615 355.4605 6.151457 0.2190832
31.60504 355.4113 6.066349 0.2634757
31.63407 355.3408 5.950813 0.1941011
31.66313 355.2784 5.897753 0.1874545
31.69431 355.1632 5.960395 0.2309614
31.72765 355.1504 6.12568 0.2991695
31.75937 355.1791 6.259757 0.3093633
31.78622 355.0011 6.316306 0.3113915
31.8119 354.6048 6.575617 0.2868951
31.84193 354.6244 7.053731 0.3619078
31.87526 354.6439 7.709579 0.515977
31.90219 354.5769 8.612158 0.6427894
31.92903 354.4007 11.00919 0.6837873
31.95745 354.4205 12.72454 0.6773043
31.98674 354.411 15.76104 0.8983577
32.02007 354.3784 17.88975 1.075869
32.0488 354.2845 21.35098 1.14847
32.08213 354.1094 25.48681 1.165641
32.11352 354.3341 29.18533 1.169502
32.14227 354.0872 32.96481 0.8971407
32.17561 354.1697 36.84225 0.7629083
32.20316 354.5722 39.76547 0.9186698
32.23203 354.6498 42.59497 0.788166
32.26035 354.9091 43.42509 0.6567217
32.2882 354.9737 43.69004 0.4804218
32.32154 354.7405 43.59519 0.2425802
32.35058 354.6891 43.37218 359.8422
32.37778 354.7829 42.68229 359.6451
32.40575 354.7971 42.31197 359.4232
32.4356 354.7357 41.90987 359.0925
32.46893 354.8405 41.73668 359.1388
32.49527 355.0845 41.39632 359.1172
32.52282 354.9155 41.03235 358.8542
32.55055 354.7918 41.01423 358.7792
32.58117 354.9191 40.9102 358.6913
32.61451 354.9288 40.67388 358.5909
32.64309 354.7964 40.43484 358.4081
32.67249 354.6514 40.13351 358.3211
32.70176 354.6272 39.8458 358.1592
32.73016 354.568 39.4379 358.1148
32.76349 354.3995 39.23287 358.0318
32.79667 354.4985 38.89262 357.9297
32.826 354.6799 38.35046 357.8991
32.85335 354.2624 37.90886 357.5176
32.88453 353.9645 37.52242 357.2952
32.91786 353.8346 36.66907 357.5655
32.94664 354.6246 35.83048 358.2831
32.97519 355.8684 35.24207 358.8816
33.00307 356.1608 34.6795 358.6904
33.03362 355.9502 34.33069 358.3531
33.06696 355.4301 33.78032 357.8244
33.09554 354.7099 33.24643 357.8011
33.12272 354.3254 32.651 358.0262
33.15543 354.1288 32.05188 358.0219
33.1853 354.0199 31.50736 357.9908
33.21863 353.8016 30.79259 357.8814
33.24617 353.8682 30.25006 357.7665
33.27296 354.2393 29.62927 357.6809
33.30062 354.4491 29.00151 357.7368
33.32689 354.5103 28.64948 357.9478
33.35509 354.8791 28.12976 358.192
33.38842 355.1263 27.69673 358.2486
33.42075 354.8613 26.87503 358.2195
33.44747 354.4355 25.92415 358.2057
33.4752 354.4127 25.5763 358.2659
33.50853 354.4453 25.04362 358.2973
33.54187 354.4685 24.56677 358.4441
33.56857 354.6248 24.25805 358.5316
33.59483 354.8308 23.96946 358.265
33.62275 354.7222 23.82898 358.1163
33.65064 354.7454 23.78218 357.9655
33.68225 354.9097 23.91271 357.8386
33.71558 354.7808 24.17073 357.9734
33.7449 354.6711 24.20782 358.2633
33.77364 354.7433 24.04801 358.4633
33.80162 354.6507 23.88334 358.4374
33.83181 354.594 23.59401 358.6155
33.86514 354.9137 23.39989 358.5016
33.89415 354.9654 23.35428 358.5363
33.92136 354.7405 23.45461 358.5337
33.94742 354.5052 23.33293 358.4174
33.97549 354.5212 23.00271 358.392
34.00882 354.5479 22.74426 358.3506
34.03686 354.599 22.28011 358.1297
34.06681 354.4182 21.82102 357.9927
34.09446 354.4916 21.65372 357.9088
34.12277 354.5493 21.66533 357.8399
34.1561 354.53 21.64972 357.826
34.1833 354.3426 21.57639 357.8079
34.21237 353.9422 21.40319 357.5004
34.24154 353.635 21.41478 357.3101
34.26954 353.1825 21.47628 357.0883
34.30287 352.6236 21.56328 356.7746
34.33076 352.6966 21.3607 356.883
34.35883 353.2444 21.09872 357.1068
34.38876 353.9884 21.02221 357.1642
34.41761 354.6708 20.78869 357.2543
34.45095 354.3424 20.41627 357.2141
34.48007 354.0394 20.11903 357.288
34.50888 353.6419 19.81732 357.8788
34.53466 353.3534 19.60807 358.0413
34.56294 352.9572 19.45744 358.1576
34.59627 352.8801 19.14296 358.2995
34.62797 352.8992 18.82415 358.3628
34.65371 353.2096 18.25989 358.4014
34.68225 353.0062 18.11121 358.325
34.7118 352.3914 18.13431 358.5317
34.74514 352.3319 18.08862 358.6552
34.77187 352.1188 17.84973 358.7212
34.80045 352.8099 17.29278 358.6145
34.83248 352.929 17.1135 358.4683
34.85901 352.6985 17.03599 358.5208
34.89235 352.9028 16.96675 358.6796
34.92046 353.1298 16.87087 358.692
34.94906 353.5819 16.51453 358.5393
34.9756 353.7932 16.30767 358.7013
35.00689 353.6745 15.9563 359.0158
35.04022 353.5162 15.65154 359.0736
35.06959 353.5604 15.07993 359.1387
35.09568 353.5724 14.21104 359.0757
35.12125 353.3004 13.78607 359.0012
35.15064 352.7907 12.95649 359.2391
35.18397 352.6971 12.35195 359.4444
35.21063 352.921 11.48377 359.4494
35.23645 352.4674 10.44125 359.6993
35.26434 352.1969 9.668014 359.973
35.29259 352.0654 8.986243 0.08634291
35.31906 351.9302 7.927926 0.2203793
35.35239 351.6401 7.14704 0.4664816
35.38277 351.5137 6.139991 0.746489
35.41135 351.3622 4.824093 1.288621
35.43837 351.3267 4.179917 1.332648
35.46557 351.1845 3.471922 1.206717
35.49891 350.8927 3.025628 1.186016
35.52652 350.6448 2.521118 1.057585
35.55633 350.8446 2.096755 1.14344
35.58276 351.0305 1.836423 1.164256
35.61092 351.2938 1.764542 1.212315
35.64426 351.5467 1.73703 1.349665
35.67026 351.624 1.810492 1.434607
35.70094 351.2871 2.181701 1.497222
35.73077 350.8072 2.519299 1.640843
35.75978 350.5839 2.713498 1.813811
35.79311 350.3377 3.14595 2.077786
35.82357 350.347 3.51338 2.18095
35.85295 350.4209 4.131373 2.251724
35.88099 350.4311 4.498753 2.227382
35.90773 350.4689 4.721817 2.133718
35.94107 350.5052 5.186974 2.045162
35.97184 350.5622 5.510704 2.03787
36.00099 350.6556 6.092282 1.892721
36.02846 350.8062 6.498806 1.888521
36.0543 350.9102 6.806591 1.878437
36.08764 350.8411 7.235884 1.824584
36.11541 350.6404 8.063544 1.739318
36.14549 350.7076 8.811831 1.71847
36.17648 350.7971 9.249568 1.568781
36.20737 350.9212 9.451673 1.380195
36.2407 350.998 9.376276 1.199134
36.26655 350.9134 9.304123 1.008684
36.29263 350.6873 8.951219 0.711585
36.32136 350.7104 8.7635 0.5823769
36.3526 350.8968 8.476553 0.4058711
36.38593 350.999 8.270338 0.3730113
36.41267 350.957 7.94957 0.4922385
36.44024 350.9267 7.744934 0.4932677
36.46786 351.0497 7.562571 0.5774673
36.49575 351.1122 7.500856 0.5798178
36.52199 351.1523 7.510336 0.5429247
36.55532 351.0878 7.647578 0.5442368
36.58265 351.0228 8.006324 0.5588528
36.60888 351.152 8.346816 0.4873539
36.6353 351.2552 8.501906 0.4676534
36.66269 351.3095 8.766489 0.3253733
36.69007 351.2985 9.062261 0.2421267
36.7234 351.5035 9.792562 0.1823679
36.7508 351.6667 10.32708 0.2176491
36.77874 351.8513 11.44099 0.2183837
36.80703 351.9191 12.00062 0.2482627
36.8325 352.0524 12.57863 0.2946283
36.86173 352.1544 12.81977 0.3011687
36.89506 352.1322 12.76687 0.3517888
36.92439 352.0438 12.60953 0.304604
36.95772 352.0489 11.81134 0.3121413
36.98513 351.9972 11.13498 0.2954477
37.0172 351.9831 10.68431 0.3814328
37.05053 351.9071 10.03559 0.4262011
37.07929 351.9608 9.355696 0.3496251
37.10847 351.9034 8.54883 0.3222767
37.14181 351.839 7.800915 0.2099324
37.17514 351.863 7.295457 0.1981368
37.20847 351.8266 6.35721 0.3298185
37.24181 351.7136 5.318165 0.5478564
37.27514 351.7762 4.51639 0.5013952
37.30847 351.8206 2.950442 0.5914953
37.3418 351.6539 1.507869 0.6383402
37.37514 351.3999 0.08483884 0.6962492
37.40847 351.4124 358.456 0.6396155
37.44181 351.3847 357.4724 0.8111186
37.47514 351.2867 356.5826 0.9632505
37.50534 351.4076 356.3455 1.119036
37.53437 351.5205 356.4635 1.45409
37.56465 351.4949 356.9467 1.605395
37.59183 351.5515 357.3772 1.646217
37.62516 351.6141 357.9865 1.775596
37.6557 351.6202 358.4009 1.756334
37.68531 351.5941 359.1603 1.696371
37.71218 351.5294 359.7653 1.70022
37.74551 351.5588 0.08703606 1.706383
37.77884 351.5653 0.501083 1.770938
37.80918 351.5937 0.7245528 1.765301
37.84252 351.5622 0.8939797 1.755796
37.86986 351.5609 0.9157578 1.654355
37.89908 351.7203 0.9757674 1.498257
37.93242 351.756 0.9273388 1.40646
37.95889 351.7009 0.9130913 1.337522
37.98709 351.5932 0.8760145 1.39758
38.01513 351.5518 0.9457507 1.2025
38.04361 351.4785 0.9875224 1.245024
38.07694 351.5153 1.153655 1.174258
38.10291 351.5765 1.281743 1.147449
38.13093 351.633 1.40417 1.231416
38.16363 351.6739 1.532347 1.295901
38.19083 351.6953 1.622764 1.287223
38.22416 351.6674 1.686301 1.299008
38.2524 351.614 1.665713 1.355551
38.28111 351.5326 1.645298 1.330075
38.30728 351.5873 1.608455 1.274281
38.33871 351.6315 1.603472 1.269072
38.37204 351.6177 1.586917 1.261689
38.40467 351.5633 1.600783 1.285904
38.43369 351.6572 1.568263 1.291557
38.46088 351.6773 1.559183 1.290757
38.49121 351.5894 1.556259 1.324938
38.52454 351.5586 1.567474 1.325005
38.55334 351.5981 1.514022 1.30125
38.58561 351.698 1.460475 1.285832
38.61895 351.6585 1.454594 1.315816
38.64959 351.6838 1.456311 1.364268
38.68292 351.6157 1.475673 1.291934
38.71002 351.5289 1.54452 1.243694
38.73837 351.5662 1.672103 1.177219
38.76776 351.5487 1.78486 1.173443
38.79665 351.4599 1.845082 1.230017
38.82998 351.4457 1.873471 1.374942
38.8604 351.4026 2.007665 1.226919
38.89007 351.4406 2.130119 1.245723
38.91966 351.4301 2.181582 1.235616
38.94888 351.411 2.202007 1.172037
38.98221 351.3856 2.175006 1.152231
39.01401 351.3889 2.161402 1.149361
39.04551 351.3082 2.063524 1.133806
39.07169 351.2947 1.957921 1.260511
39.10085 351.3012 1.869175 1.164382
39.13418 351.3363 1.805519 1.193818
39.16182 351.4029 1.729308 1.21699
39.18938 351.4905 1.716729 1.168681
39.2177 351.4654 1.758478 1.184192
39.24706 351.4251 1.770914 1.201496
39.28039 351.4707 1.765692 1.203443
39.30719 351.4899 1.777127 1.241092
39.33894 351.4454 1.749627 1.341877
39.36831 351.3377 1.668185 1.339221
39.39735 351.3348 1.597475 1.336139
39.43069 351.3284 1.568192 1.322939
39.46402 351.2792 1.516351 1.365743
39.4927 351.2929 1.534578 1.349584
39.51874 351.3062 1.622115 1.275546
39.54634 351.2659 1.670543 1.270366
39.57968 351.1833 1.758508 1.265528
39.60698 351.1195 1.83097 1.27344
39.63242 351.1285 1.869769 1.252874
39.65971 351.1299 1.840612 1.29465
39.69121 351.0999 1.779984 1.216685
39.72454 351.2063 1.706824 1.276964
39.7506 351.2685 1.679807 1.274868
39.77658 351.349 1.69578 1.267573
39.80735 351.2716 1.739451 1.292166
39.83479 351.2556 1.759763 1.279461
39.86077 351.2555 1.798657 1.230837
39.8941 351.2564 1.741251 1.28379
39.92346 351.2238 1.715363 1.29083
39.95494 351.2663 1.698954 1.218003
39.98183 351.4518 1.690779 1.223147
40.01018 351.4993 1.718534 1.268664
40.04351 351.4879 1.73413 1.298851
40.07273 351.4682 1.740197 1.247675
40.10606 351.5558 1.686446 1.341402
40.13907 351.5573 1.649771 1.383399
40.16799 351.6279 1.58089 1.416346
40.20132 351.6958 1.533602 1.427883
40.22801 351.797 1.424069 1.48015
40.25371 351.7952 1.325402 1.555372
40.28121 351.8136 1.268234 1.514189
40.30979 351.8983 1.26053 1.537539
40.33815 351.9665 1.364169 1.538744
40.37148 351.9477 1.439619 1.532285
40.40482 351.8857 1.529869 1.527963
40.43471 351.8077 1.543567 1.542405
40.46147 351.8013 1.540897 1.573131
40.48893 351.7427 1.488324 1.598531
40.52227 351.7752 1.508461 1.501494
40.55176 351.8278 1.429252 1.518247
40.57761 351.9232 1.431636 1.480156
40.61042 351.8241 1.485589 1.514107
40.63856 351.752 1.493366 1.56077
40.67189 351.8182 1.526948 1.514464
40.69766 351.9197 1.54734 1.491053
40.72441 351.8665 1.542248 1.499589
40.75774 351.7992 1.505542 1.525794
40.78761 351.899 1.540586 1.420439
40.82094 352.002 1.564674 1.388852
40.84941 352.0046 1.608402 1.410076
40.87681 352.0136 1.670264 1.403544
40.90645 352.0385 1.697883 1.32981
40.93495 352.065 1.716585 1.364289
40.96828 352.0527 1.703104 1.404949
40.99933 351.9832 1.69912 1.420087
41.03266 352.0557 1.641584 1.44179
41.05912 352.0299 1.582755 1.473314
41.08538 352.0315 1.550302 1.483363
41.11871 352.001 1.55317 1.448163
41.1466 352.0172 1.618947 1.458968
41.17514 351.9463 1.663124 1.516203
41.20109 351.8773 1.660981 1.544708
41.23306 351.9397 1.686422 1.491253
41.26639 351.9801 1.697527 1.45638
41.2968 351.9619 1.660053 1.469484
41.32841 351.9469 1.604805 1.606799
41.35931 352.0569 1.618043 1.415597
41.38861 352.0569 1.614627 1.438553
41.42194 351.9962 1.679614 1.483202
41.4481 352.0169 1.724604 1.423707
41.47697 352.0324 1.743172 1.441273
41.50784 352.0476 1.765414 1.43949
41.53749 351.9821 1.727731 1.439846
41.57082 351.9494 1.753901 1.426817
41.60151 351.9095 1.710515 1.46758
41.63051 351.9627 1.713115 1.458758
41.66079 351.9933 1.696169 1.447282
41.68727 351.9893 1.745423 1.456866
41.7206 351.9861 1.758581 1.482681
41.74979 351.9626 1.761542 1.495953
41.7761 351.8703 1.718917 1.480581
41.80199 351.9097 1.721094 1.465617
41.83047 351.9425 1.724449 1.502213
41.8638 351.831 1.714735 1.547396
41.89151 351.7876 1.686855 1.576929
41.91956 351.8702 1.690506 1.573386
41.94795 351.913 1.737575 1.539972
41.97692 351.8962 1.773945 1.568205
42.01026 351.8405 1.847824 1.513005
42.03818 351.8291 1.91871 1.464889
42.06667 351.8628 2.006878 1.404243
42.0999 351.8009 1.999658 1.416503
42.12796 351.7532 1.99955 1.397267
42.1613 351.8497 2.033806 1.351052
42.19101 351.8978 2.044255 1.386153
42.22138 351.802 1.987952 1.478164
42.24955 351.7809 1.92372 1.464624
42.27771 351.9217 1.931409 1.264421
42.31105 351.8628 1.894041 1.318975
42.33941 351.8568 1.934496 1.363867
42.367 351.8991 1.937005 1.381551
42.39368 351.9863 1.965044 1.402988
42.42348 352.0439 1.926736 1.358023
42.45681 351.9998 1.883324 1.385022
42.4837 351.9406 1.886332 1.392693
42.51102 351.958 1.875903 1.413242
42.54436 352.0367 1.867112 1.379593
42.57411 351.992 1.85759 1.390466
42.60744 352.0818 1.896331 1.383684
42.63533 352.1353 1.935392 1.358141
42.66272 352.025 1.902667 1.345924
42.69122 352.0185 1.888224 1.311164
42.72178 352.0434 1.908998 1.287924
42.75511 352.0849 1.934491 1.263522
42.78354 352.0682 1.941714 1.286494
42.81217 351.9751 2.0011 1.27092
42.83807 352.0069 2.069081 1.169677
42.86982 352.0578 2.120634 1.085408
42.90316 352.059 2.145911 1.072617
42.93213 351.9806 2.204422 1.036378
42.96078 352.0154 2.232336 0.9578124
42.99412 352.079 2.21912 0.9959051
43.02385 352.0052 2.205766 1.054303
43.05718 351.9656 2.197354 1.060127
43.08549 351.9796 2.1577 1.05581
43.11849 351.9036 2.095974 1.059943
43.14748 351.7881 2.004896 1.126698
43.17933 351.8265 1.930563 1.124887
43.21267 351.9439 1.913575 1.070418
43.24025 351.968 1.843192 1.169417
43.26926 351.8914 1.803961 1.213404
43.29681 351.8929 1.792971 1.19481
43.32709 351.9252 1.798173 1.190009
43.36042 351.9135 1.813287 1.22524
43.38931 351.8387 1.856894 1.273529
43.41902 351.8321 1.803653 1.291388
43.44839 351.8763 1.786698 1.229638
43.47463 351.9212 1.710205 1.256043
43.50796 352.0012 1.710566 1.258757
43.53895 352.0459 1.760725 1.234154
43.56529 351.9587 1.827644 1.180704
43.59148 351.9204 1.884763 1.148064
43.62011 351.9545 1.920987 1.179119
43.65345 351.9996 1.964304 1.187739
43.68067 351.9064 1.943031 1.237129
43.70851 351.8105 1.921775 1.148054
43.74061 351.9027 1.865176 1.09812
43.76987 352.0187 1.860645 1.11464
43.80321 351.9621 1.8613 1.135141
43.82895 351.8109 1.947972 1.154577
43.85728 351.8753 1.953097 1.114519
43.88672 351.9564 1.94874 1.109617
43.91702 352.0009 1.903228 1.168446
43.95035 351.9594 1.848829 1.207117
43.97866 351.9771 1.775179 1.2426
44.00808 352.0198 1.667423 1.291131
44.03493 352.0056 1.604811 1.352851
44.06827 352.0266 1.549954 1.412901
44.1016 352.4897 1.52561 1.479064
44.13494 352.4837 1.514794 1.488453
44.16827 352.4861 1.418839 1.572255
44.2016 352.4389 1.407644 1.488639
44.23494 352.472 1.386698 1.482467
44.26306 352.5742 1.457097 1.542398
44.28987 352.6132 1.535412 1.524665
44.31627 352.5466 1.553437 1.499761
44.34435 352.532 1.545454 1.465068
44.37769 352.5585 1.52588 1.46378
44.40532 352.5703 1.539176 1.468027
44.43347 352.491 1.544139 1.54169
44.46503 352.4297 1.559926 1.523488
44.49384 352.5099 1.554381 1.462802
44.52717 352.5452 1.558242 1.455016
44.55883 352.5388 1.575401 1.433013
44.58663 352.4735 1.636708 1.479694
44.61451 352.4628 1.676413 1.467566
44.64203 352.4792 1.680613 1.489637
44.67536 352.4616 1.669564 1.495281
44.7033 352.4803 1.634709 1.47658
44.73119 352.5606 1.653761 1.477339
44.75842 352.4838 1.645889 1.489936
44.78837 352.4575 1.611366 1.541991
44.8217 352.5671 1.549035 1.614255
44.85504 352.6538 1.566692 1.465266
44.88106 352.4161 1.569018 1.57513
44.90776 352.4509 1.618717 1.563947
44.93817 352.5539 1.660497 1.541137
44.9715 352.6388 1.653372 1.554949
45.00092 352.5862 1.62696 1.573769
45.02863 352.4439 1.582823 1.588949
45.06036 352.5016 1.596285 1.554876
45.09019 352.4763 1.579494 1.600424
45.12352 352.5163 1.578564 1.60269
45.15525 352.5206 1.618074 1.614696
45.18323 352.5709 1.671342 1.562253
45.21146 352.6371 1.642799 1.560547
45.23928 352.6352 1.643327 1.552487
45.27261 352.6403 1.643736 1.564416
45.30091 352.6074 1.651656 1.591296
45.33168 352.5111 1.618545 1.648544
45.36005 352.471 1.590795 1.617983
45.39281 352.598 1.58529 1.624938
45.42615 352.6335 1.592686 1.666703
45.45454 352.5767 1.609272 1.671407
45.48164 352.5079 1.592576 1.664216
45.50874 352.513 1.614418 1.671622
45.53688 352.4437 1.634118 1.693649
45.57021 352.3974 1.603814 1.688646
45.59766 352.4768 1.55508 1.688083
45.62525 352.5407 1.535479 1.680647
45.65821 352.5217 1.535744 1.670863
45.69052 352.489 1.535759 1.693065
45.72385 352.5006 1.496106 1.687324
45.75189 352.5288 1.437206 1.717666
45.7802 352.5801 1.438365 1.558738
45.80951 352.5634 1.420951 1.627528
45.84232 352.6621 1.402463 1.664171
45.87565 352.7226 1.4368 1.679058
45.90718 352.7431 1.428518 1.699222
45.93502 352.7033 1.418808 1.678559
45.96143 352.5897 1.442057 1.6672
45.98851 352.5017 1.436091 1.730463
46.02184 352.3993 1.401943 1.725896
46.04947 352.4271 1.370037 1.60533
46.07547 352.539 1.403347 1.579679
46.10362 352.5763 1.43181 1.604253
46.13194 352.5075 1.483644 1.646359
46.16527 352.4849 1.49666 1.612489
46.1956 352.5415 1.472003 1.549516
46.22277 352.5077 1.484218 1.566975
46.25091 352.4655 1.490277 1.555448
46.28162 352.4476 1.480905 1.564085
46.31495 352.4832 1.484456 1.559042
46.3413 352.546 1.450774 1.545835
46.36945 352.4342 1.432486 1.546155
46.40002 352.4492 1.438221 1.531939
46.42634 352.528 1.46141 1.474349
46.45967 352.5541 1.485517 1.465803
46.49183 352.4333 1.513176 1.528821
46.51943 352.3742 1.54144 1.501957
46.54565 352.4299 1.510689 1.492046
46.57287 352.4245 1.460122 1.493338
46.6062 352.4273 1.447814 1.525545
46.63463 352.3648 1.428391 1.494348
46.66079 352.3923 1.381594 1.57195
46.68695 352.4582 1.384554 1.500811
46.7166 352.4433 1.338243 1.580289
46.74994 352.4308 1.349529 1.547511
46.78327 352.4445 1.356414 1.498264
46.81385 352.3232 1.374986 1.583679
46.84578 352.4143 1.378542 1.554791
46.87349 352.4578 1.39024 1.58607
46.90683 352.4011 1.36003 1.637591
46.93341 352.3073 1.379417 1.508781
46.96144 352.3851 1.358669 1.485665
46.98932 352.5556 1.377186 1.518893
47.01541 352.4673 1.410067 1.560551
47.04278 352.3752 1.435667 1.530584
47.07611 352.3246 1.448932 1.459533
47.1043 352.4714 1.439644 1.415344
47.13577 352.5603 1.45425 1.517075
47.16343 352.5589 1.412894 1.582694
47.19397 352.5171 1.372781 1.598254
47.22731 352.6 1.324352 1.607093
47.25447 352.5946 1.212896 1.66156
47.28195 352.6304 1.169792 1.667144
47.3096 352.6578 1.159754 1.682574
47.33844 352.6905 1.176644 1.732888
47.37178 352.7076 1.224413 1.75859
47.40314 352.6999 1.224814 1.774292
47.43051 352.7963 1.222696 1.802753
47.4582 352.776 1.168202 1.826938
47.48904 352.7044 1.154536 1.790282
47.52238 352.6813 1.138707 1.807832
47.55195 352.6974 1.13059 1.891382
47.58257 352.7512 1.148759 1.777136
47.60889 352.6967 1.126048 1.843395
47.63527 352.7529 1.167521 1.80017
47.6686 352.746 1.22489 1.792386
47.69607 352.6684 1.223653 1.827723
47.72295 352.6661 1.236223 1.775965
47.75113 352.7222 1.236384 1.756608
47.78203 352.6361 1.240509 1.786876
47.81536 352.5383 1.247952 1.796023
47.84163 352.5638 1.289289 1.696534
47.87496 0 0 0
