時間[s] x軸周り[deg] y軸周り[deg] z軸周り[deg]
0 0 0 0
0.02 0 0 0
0.05333333 353.012 0.2539384 0.2677062
0.08666666 351.3654 359.624 0.5370095
0.12 351.384 359.5967 0.5293725
0.1488947 352.0335 359.3348 0.7265039
0.182228 352.2802 358.8815 0.9196932
0.2115191 353.001 357.905 1.394282
0.2448525 353.2237 357.4558 1.627272
0.2781858 353.349 356.5928 1.995007
0.3096162 353.3334 356.1377 1.8317
0.3377683 353.222 355.7813 1.947127
0.3669299 353.1515 355.476 2.007589
0.3997973 353.0936 355.3786 1.905524
0.430959 353.1729 355.2723 1.664128
0.4588779 353.3602 355.3237 1.456138
0.4922112 353.5291 355.4574 1.325591
0.5238413 354.1124 355.7122 1.12753
0.5568682 354.2702 355.806 1.181221
0.5884692 354.7753 355.894 1.295472
0.6218026 355.1816 356.1523 1.411815
0.6526147 355.7106 356.2364 1.752921
0.685948 355.9329 356.5128 1.953195
0.7192813 356.2591 357.4375 2.673508
0.7503402 356.8586 357.7961 2.323166
0.7831259 356.8793 358.2499 2.88525
0.8164592 356.6327 358.7243 3.319544
0.8448017 356.4678 358.7145 3.514923
0.8756213 356.2993 358.9018 3.499465
0.9060168 355.8375 359.2184 3.667617
0.9366652 354.9507 359.162 4.111715
0.9665666 354.3411 358.9491 4.622021
0.9998999 353.9078 358.8829 4.921113
1.029891 353.0204 358.7224 4.953243
1.05999 353.0461 358.4261 5.246608
1.088676 353.8236 358.0281 5.917927
1.119969 353.5801 357.7386 5.84556
1.149787 353.9646 357.4807 5.69838
1.180609 354.9483 357.1492 5.678387
1.210657 354.9032 357.0895 5.618354
1.243991 355.2159 357.0404 5.439307
1.273753 355.6476 357.2081 5.029702
1.307087 355.9022 357.6289 4.6742
1.335244 355.6902 358.0564 4.63808
1.366516 355.6006 358.3252 4.44269
1.397497 356.3862 358.6283 4.289938
1.429624 357.3421 358.9391 4.261206
1.462957 357.4633 359.4227 3.935848
1.494222 357.6066 359.9164 3.810836
1.527555 357.842 0.3348881 3.859833
1.560889 357.8662 0.4286591 3.740803
1.589987 358.2775 0.2900313 3.731795
1.62332 358.5378 0.03474522 3.63861
1.652139 358.5185 0.01963407 3.503582
1.685473 358.5035 0.02216129 3.917076
1.714019 359.0266 359.9877 3.904698
1.742894 359.2114 0.2386101 4.030765
1.771982 358.6127 0.3724978 4.176296
1.80366 358.2291 0.7053979 3.93718
1.836993 358.7842 1.061919 4.285227
1.870327 -0.005341665 0.9933301 4.23183
1.899028 0.6006888 0.7983227 4.501398
1.929985 0.2257809 0.5835552 4.488272
1.959706 359.383 0.4160654 4.820883
1.991696 358.9998 0.1089056 5.16528
2.021006 359.3721 0.007225894 5.128032
2.054339 359.7943 359.8237 5.315757
2.086053 0.3597296 359.4337 5.319877
2.119386 0.9459392 359.4805 4.900544
2.147816 1.420438 359.4486 5.335935
2.176946 1.10181 359.0955 5.222625
2.207691 0.5935008 358.9669 5.249834
2.240844 359.7891 358.8045 4.880482
2.269824 359.4984 358.8568 4.622519
2.300343 0.1675435 358.8832 4.732456
2.33022 0.5027652 359.0046 4.706621
2.361259 359.9772 359.3238 4.426188
2.394593 -0.0005434953 359.49 4.339187
2.426489 0.4209515 359.7093 4.251839
2.455124 1.444386 359.9063 4.216491
2.485583 2.032929 0.2962766 3.856394
2.512819 1.692601 0.9501895 3.511573
2.542806 1.309699 1.286374 3.577262
2.57614 1.085858 1.60873 3.572305
2.609473 1.033342 1.908976 3.578905
2.64029 0.9282112 2.052903 3.712178
2.673624 0.963599 1.973599 3.930304
2.706957 1.241438 1.777626 4.103583
2.74029 1.38521 1.562131 3.961849
2.770081 1.166924 1.34635 3.936732
2.801901 1.174927 1.179725 3.986033
2.833223 1.023957 1.110101 3.959669
2.863149 0.8180155 1.096376 4.178715
2.894146 0.697556 1.130385 4.351915
2.927479 0.5295169 1.16252 4.520538
2.960812 0.4996783 1.132917 4.695304
2.994146 0.434589 0.9850968 4.699425
3.027479 0.4046975 0.8481677 4.65412
3.058086 0.4990124 0.7620962 4.56077
3.091419 0.3479883 0.6878998 4.624887
3.124753 0.1065779 0.6901211 4.693064
3.154053 359.6383 0.9511869 4.666274
3.184007 359.4482 1.065548 4.744802
3.214159 359.3377 1.353462 4.816701
3.244594 359.5839 1.602965 4.916144
3.277928 0.06470989 1.775964 5.223533
3.30911 0.1000411 1.797354 5.486904
3.34171 359.8524 1.660198 5.632115
3.374892 359.8653 1.450716 5.599047
3.407436 359.6217 1.336562 5.454773
3.437727 359.3451 1.07866 5.462922
3.467329 359.3311 0.9089671 5.473937
3.500662 359.0632 0.9591671 5.334201
3.533445 358.555 0.953391 5.300442
3.566779 358.6401 0.9055923 5.335197
3.59779 358.4385 1.163429 5.128461
3.62881 358.3525 1.222864 4.970732
3.659417 358.3742 1.144553 5.050911
3.69275 358.2515 1.274352 4.797099
3.724162 358.391 1.487482 4.64362
3.757495 358.2879 1.644873 4.664216
3.786266 358.2148 1.764523 4.596945
3.814935 358.3309 1.883277 4.771434
3.848268 358.2896 1.975717 4.765974
3.878875 358.1924 2.142632 4.936282
3.908326 358.1396 2.31575 5.064634
3.941274 358.1516 2.499677 5.186539
3.974607 358.1049 2.690297 5.407131
4.00794 358.1236 2.838277 5.530364
4.038328 358.3248 2.973557 5.566925
4.071661 358.4851 3.026523 5.507685
4.100178 358.764 2.948782 5.464287
4.1286 358.9553 2.75194 5.494488
4.15655 359.0638 2.612113 5.48686
4.186866 359.0863 2.450796 5.449099
4.220179 358.8187 2.162231 5.400898
4.250592 358.4294 1.941303 5.4724
4.28145 358.0584 1.798499 5.47701
4.314037 357.8456 1.748079 5.41625
4.345757 357.7996 1.714953 5.304598
4.377963 357.7602 1.719545 5.091708
4.407535 357.4769 1.804272 4.771176
4.440868 357.4299 1.918738 4.706154
4.473104 357.6289 2.102234 4.686632
4.506397 357.5992 2.305741 4.758358
4.537499 357.374 2.51522 4.819027
4.570833 357.3203 2.644846 4.8015
4.603447 357.2315 2.679395 4.934289
4.636781 357.1255 2.633699 5.035267
4.667236 356.7698 2.511149 5.107565
4.700569 356.606 2.395579 5.171415
4.733902 356.8772 2.303328 5.379673
4.765298 357.1172 2.152325 5.396942
4.796478 357.0805 1.929983 5.375175
4.829811 357.0166 1.787952 5.363831
4.859605 356.9133 1.611482 5.216128
4.88903 356.9241 1.511846 5.193262
4.921684 356.9794 1.489761 5.136414
4.95081 356.8995 1.460224 5.150578
4.984092 356.9168 1.384488 5.182291
5.017426 357.1084 1.26849 5.24058
5.047441 356.964 1.249006 5.219231
5.077286 356.6801 1.195401 5.190708
5.109436 356.6543 1.129088 5.120377
5.139464 356.8986 1.114687 5.147743
5.168886 357.1459 1.227152 5.228303
5.202219 357.1706 1.379923 5.185906
5.233889 356.9362 1.499565 5.266962
5.267222 356.9401 1.568093 5.299288
5.299856 357.0081 1.548313 5.352815
5.333189 356.8348 1.393571 5.580589
5.364106 356.8713 1.173263 5.558847
5.397439 356.963 0.9460163 5.521267
5.427994 357.0453 0.7777578 5.487414
5.460837 357.251 0.7904307 5.413136
5.49307 357.4967 0.8424891 5.249329
5.525543 357.5797 0.9026642 5.086874
5.554614 357.3672 0.9558077 4.990887
5.583863 357.0509 1.008363 4.949009
5.614444 357.2311 1.256574 4.91276
5.647777 357.2999 1.430576 4.9195
5.68111 357.1011 1.558809 4.988737
5.712344 357.6663 1.742871 4.816571
5.742189 357.8722 1.972416 4.587546
5.774835 357.3925 2.009352 4.799513
5.803796 357.3217 2.003878 4.750481
5.835969 357.2568 2.075499 4.608342
5.868873 357.0615 2.052519 4.677709
5.902206 357.4057 2.061456 4.62903
5.934524 357.2761 2.024843 4.662709
5.966391 356.9158 1.920397 4.787335
5.996265 356.8575 1.827987 4.746604
6.029599 356.9673 1.785126 4.676632
6.062231 357.0437 1.71166 4.728862
6.095564 357.3102 1.567076 4.71662
6.124451 357.5247 1.534096 4.746924
6.152956 357.4419 1.543678 4.805707
6.183484 357.574 1.473799 4.771419
6.213836 357.7886 1.415975 4.683425
6.246678 357.8256 1.421564 4.594085
6.280012 357.7755 1.422569 4.536598
6.311727 357.681 1.442016 4.583701
6.340285 357.6225 1.430907 4.586858
6.373618 357.4731 1.425409 4.590609
6.406952 357.3284 1.405608 4.533708
6.436603 357.4135 1.424652 4.438074
6.469936 357.4901 1.522884 4.373495
6.50257 357.4986 1.663882 4.469963
6.535903 357.4105 1.761566 4.459693
6.568003 357.3815 1.866427 4.391542
6.598886 357.2403 1.889125 4.278734
6.632219 357.1288 1.82532 4.263672
6.664649 357.1894 1.780839 4.211982
6.697983 357.2186 1.653144 4.268995
6.731316 357.0982 1.653725 4.253609
6.760387 357.1233 1.604105 4.352903
6.791452 357.0883 1.538537 4.353593
6.821266 357.0367 1.463777 4.325491
6.852844 356.9656 1.309507 4.475147
6.886177 357.0143 1.246641 4.521484
6.91916 356.9631 1.210783 4.531554
6.948757 356.8996 1.11252 4.609415
6.981121 356.8581 1.088453 4.606771
7.014454 356.8326 1.13655 4.615981
7.046442 356.708 1.141555 4.677526
7.079775 356.6521 1.093865 4.7231
7.113109 356.6903 1.010027 4.71443
7.146442 356.7233 0.9305575 4.793062
7.179775 356.7528 0.9072903 4.896264
7.212412 356.7379 0.8865443 4.957323
7.243272 356.7617 0.7498183 4.970378
7.276605 356.8094 0.7175421 4.79741
7.308386 356.7755 0.7010386 4.886536
7.338038 356.7668 0.7362775 4.940081
7.369805 356.8242 0.7469364 5.007758
7.399548 356.8827 0.7191986 5.06498
7.432881 356.8872 0.6928614 5.026485
7.461444 356.7727 0.6367801 5.089761
7.491407 356.7275 0.59603 5.008362
7.524165 356.7282 0.5680718 5.082581
7.553949 356.6988 0.5302536 5.128275
7.585404 356.6324 0.5320555 5.13851
7.618738 356.698 0.4983677 5.091485
7.647988 356.7644 0.430314 5.025381
7.680838 356.7508 0.409187 5.011722
7.714171 356.7188 0.434562 4.979071
7.745372 356.7893 0.4875675 4.94761
7.773895 356.8661 0.5046121 4.940895
7.80575 356.7219 0.5395558 4.880764
7.835781 356.6617 0.5444546 4.907704
7.867515 356.6399 0.4899883 4.967487
7.900848 356.5572 0.4044073 4.872945
7.930084 356.5783 0.3711336 4.766862
7.960583 356.5725 0.394238 4.64828
7.993917 356.6043 0.4417329 4.67502
8.024919 356.6492 0.5617445 4.675893
8.056388 356.6454 0.5992691 4.731377
8.089721 356.5976 0.5979322 4.759586
8.11828 356.519 0.5119884 4.690867
8.150258 356.4523 0.4333469 4.739114
8.179144 356.424 0.3292699 4.70793
8.212477 356.4008 0.2918171 4.747705
8.245811 356.3623 0.2579478 4.851744
8.275953 356.3726 0.2704949 4.845343
8.309287 356.3778 0.2643573 4.822654
8.337289 356.3081 0.2103856 4.779289
8.370623 356.2789 0.1855869 4.767326
8.403956 356.3211 0.2023856 4.759525
8.437289 356.341 0.1993484 4.777615
8.466431 356.2956 0.2022279 4.758872
8.499763 356.33 0.1751918 4.774949
8.532702 356.3556 0.1619354 4.789045
8.565111 356.3412 0.1630502 4.725403
8.598444 356.4553 0.1709186 4.706388
8.62836 356.4211 0.2324054 4.560077
8.661693 356.3867 0.3355907 4.610469
8.695026 356.4428 0.4846297 4.649663
8.728359 356.4306 0.4649551 4.775923
8.758733 356.4172 0.4402649 4.719655
8.788597 356.4022 0.4213983 4.660264
8.82193 356.3663 0.3882459 4.693407
8.855264 356.5884 0.4331611 4.692579
8.888362 356.6223 0.4658194 4.769205
8.917393 356.6103 0.515112 4.73438
8.950727 356.6086 0.5321423 4.717071
8.983491 356.6438 0.5349122 4.635095
9.013616 356.6545 0.5574249 4.581239
9.043441 356.6831 0.5845256 4.6033
9.076774 356.7037 0.5967844 4.543046
9.106464 356.6732 0.5925624 4.504062
9.139797 356.6627 0.6241176 4.391524
9.173131 356.7025 0.6482498 4.373205
9.206464 356.6673 0.7462359 4.354071
9.235798 356.5532 0.8310168 4.32456
9.268169 356.588 0.8538409 4.233233
9.301503 356.5794 0.8778667 4.010284
9.334836 356.6368 0.9397966 4.052245
9.366416 356.6409 0.9985649 4.067272
9.398687 356.575 0.9933866 4.084976
9.427993 356.517 0.8937918 4.167591
9.45876 356.4481 0.8640071 4.173987
9.486356 356.3679 0.8153371 4.208506
9.51969 356.2791 0.8156931 4.199789
9.553022 356.3045 0.8112612 4.311069
9.582957 356.2964 0.7373338 4.380983
9.612289 356.1956 0.6767805 4.353907
9.643695 356.2564 0.6684055 4.357471
9.672596 356.2625 0.7051005 4.373448
9.701474 356.1355 0.7794499 4.355949
9.731026 356.0698 0.8333183 4.350982
9.764359 356.0153 0.9015581 4.375306
9.793427 355.9522 0.966176 4.362147
9.822494 355.856 0.9839318 4.400054
9.854911 355.8526 0.9902017 4.454804
9.888244 355.798 0.9178604 4.510049
9.92121 355.7671 0.8579432 4.513528
9.954543 355.7937 0.8412035 4.396818
9.981656 355.8482 0.8594765 4.487537
10.0127 355.8285 0.8764727 4.505155
10.04083 355.7787 0.89916 4.55536
10.07271 355.7691 0.8804071 4.545319
10.10088 355.6977 0.8561477 4.507029
10.13399 355.6245 0.7968463 4.566296
10.16429 355.6394 0.8115637 4.495075
10.19763 355.6824 0.7806429 4.531525
10.23096 355.6349 0.840766 4.500968
10.26196 355.6526 0.8868324 4.531965
10.29328 355.7388 0.9292983 4.488054
10.32483 355.7021 0.9089937 4.476792
10.35693 355.694 0.8601603 4.468329
10.38616 355.7126 0.8535413 4.458987
10.4191 355.7069 0.8223339 4.476346
10.44822 355.6682 0.8166865 4.517362
10.47956 355.6434 0.8482735 4.548398
10.51289 355.5829 0.8011093 4.572295
10.54623 355.6047 0.7580541 4.560153
10.57533 355.703 0.7425506 4.315501
10.60517 355.7068 0.712256 4.388889
10.6385 355.6983 0.783 4.478662
10.66723 355.7203 0.8178185 4.524229
10.70056 355.7289 0.8007495 4.588145
10.73034 355.677 0.7275057 4.526179
10.76266 355.6148 0.6361058 4.550411
10.79274 355.6294 0.6425292 4.470712
10.82607 355.6257 0.621561 4.537128
10.85475 355.7152 0.6658682 4.498958
10.88808 355.7043 0.6904364 4.442504
10.92141 355.9322 0.6641369 4.301293
10.95082 356.0045 0.6864556 4.173923
10.97892 355.7683 0.7534503 4.228056
11.00943 355.6026 0.8325194 4.351959
11.04277 355.6301 0.8877211 4.449792
11.07367 355.7942 0.7723264 4.341932
11.10295 355.7141 0.7078756 4.375316
11.13391 355.2149 0.5650949 4.323394
11.16599 355.0728 0.3164865 4.258727
11.19526 355.597 0.2746579 4.129745
11.22859 355.8812 0.3417295 4.132855
11.26192 356.2184 0.4962789 4.131008
11.29218 356.5795 0.735223 4.112217
11.32535 356.7213 0.8998808 4.095547
11.35398 356.7118 0.9850287 4.004901
11.38316 356.7374 0.9416644 4.027966
11.41402 356.7572 0.9655854 4.100333
11.44384 356.6382 0.917593 4.246842
11.47654 356.5938 0.9454853 4.266742
11.50988 356.3514 0.8942335 4.256002
11.538 356.1965 0.7837031 4.33143
11.56981 356.2964 0.7696719 4.300609
11.60314 356.3021 0.7411236 4.219763
11.63513 356.4193 0.6928497 4.132123
11.6631 356.6038 0.7471733 4.076843
11.69369 356.7468 0.8168954 4.137657
11.72702 356.7332 0.9126633 4.23457
11.75838 356.6324 0.9203696 4.1994
11.79171 356.6555 0.7773768 4.176323
11.82348 356.7424 0.8014577 4.105096
11.85141 356.6663 0.8284891 4.132895
11.88182 356.5643 0.8392582 4.267846
11.91399 356.5977 0.7616414 4.271458
11.94639 356.656 0.6424434 4.305375
11.97383 356.619 0.595953 4.213284
12.00448 356.6223 0.5799901 4.152696
12.03514 356.6707 0.6369959 4.029248
12.06576 356.6919 0.6736601 4.094902
12.09759 356.6135 0.802756 4.105289
12.13092 356.5534 0.943581 4.01064
12.16025 356.5057 0.9432961 3.978006
12.19359 356.4798 1.034827 3.893068
12.22258 356.4916 1.004123 3.877388
12.25505 356.4644 0.9641243 3.878115
12.28838 356.5507 1.003424 3.799316
12.32172 356.5842 0.9624702 3.841409
12.35482 356.4583 0.867728 3.888822
12.38496 356.4628 0.8339586 3.855238
12.4183 356.4725 0.8696795 3.72072
12.44892 356.4925 0.835331 3.826905
12.48071 356.4582 0.8562936 3.895303
12.51404 356.5096 0.8582236 3.84246
12.54433 356.5403 0.7580618 3.903923
12.57519 356.4027 0.7376938 3.947749
12.60701 356.3472 0.7293461 3.904785
12.63872 356.4102 0.7326666 3.928046
12.67205 356.3657 0.7105184 4.004014
12.70539 356.2637 0.7486357 4.009473
12.73872 356.3452 0.8031238 4.011092
12.7718 356.373 0.7106956 3.936916
12.80514 356.4209 0.701067 3.90334
12.83601 356.3781 0.7222726 3.946522
12.86934 356.37 0.7046043 4.000543
12.90268 356.4022 0.6612309 4.111535
12.93317 356.3287 0.6326867 4.155931
12.96441 356.2887 0.6635191 4.090027
12.99558 356.3008 0.6829301 3.992146
13.02891 356.4031 0.6823437 4.110763
13.06207 356.4697 0.6920884 4.14468
13.0931 356.5082 0.6472452 4.145577
13.12643 356.391 0.5690217 4.1968
13.15734 356.3019 0.562175 4.186698
13.18718 356.3489 0.6349007 4.208996
13.21998 356.3466 0.7702939 4.116879
13.25301 356.0391 0.8956698 4.216608
13.28634 355.9832 1.058336 4.134499
13.31501 356.2584 1.092286 4.046232
13.34767 356.3318 1.080134 4.072249
13.381 356.2034 0.9897457 4.138668
13.41433 356.2604 0.966297 4.072223
13.44538 356.6499 0.9581541 3.929318
13.47606 356.4957 1.028905 3.960451
13.50939 356.1652 1.291027 3.949406
13.54272 356.3319 1.563206 3.92991
13.57176 356.8791 2.030385 3.71617
13.60166 356.7864 2.305188 3.834974
13.63191 356.7858 2.576303 3.97108
13.66372 357.0439 2.918976 3.927038
13.69661 356.9311 3.304546 3.981102
13.72865 356.7776 3.470191 4.319331
13.76198 356.7693 3.486606 4.351517
13.79411 357.2283 3.680138 4.11229
13.82263 357.3633 3.786183 4.399025
13.85231 357.2021 3.861477 4.485436
13.88469 357.1373 3.973146 4.498034
13.91412 357.236 3.951731 4.576251
13.94533 357.1377 3.930704 4.704768
13.97746 357.3111 3.90139 4.952013
14.01079 357.2445 3.850239 5.147534
14.04215 357.1355 3.559801 5.61207
14.07377 357.3256 3.22339 5.795588
14.10585 357.2039 2.867522 5.806869
14.13563 356.7639 2.468039 5.777915
14.16694 356.491 2.248263 5.646294
14.19586 356.5991 2.049596 5.67642
14.22713 356.623 1.961103 5.754997
14.26047 356.4715 1.958401 5.878131
14.2938 356.2132 1.876291 5.940648
14.32315 356.1888 1.753861 5.600384
14.35648 356.6783 1.742122 5.466996
14.38781 356.8127 1.890825 5.28751
14.41843 356.9917 2.282844 5.228505
14.45176 357.0482 2.789078 5.160268
14.4851 356.9639 3.31745 5.186326
14.51392 356.6927 3.634888 5.109013
14.54726 356.7418 3.760707 4.900308
14.57898 356.7499 3.902982 4.705141
14.6108 357.0106 4.109392 4.448514
14.64413 357.4191 4.489223 4.084737
14.67747 357.4215 4.835443 3.916697
14.71069 357.2025 5.031062 3.892295
14.74058 356.892 5.128412 3.761559
14.77207 356.3064 5.176716 3.733688
14.80273 356.0211 5.014359 4.000482
14.83486 355.9647 4.845377 4.010218
14.86819 355.7323 4.597701 4.060523
14.90152 355.7261 4.446835 3.973935
14.93486 356.0701 4.265646 3.954289
14.96435 356.2245 4.145533 4.095289
14.99768 356.0193 4.027925 4.100343
15.02992 355.6947 3.960344 4.166297
15.06174 355.7258 3.993689 4.143829
15.09129 355.6377 4.002891 4.138417
15.12143 355.7883 3.998594 4.242795
15.15477 356.1959 4.072686 4.25585
15.1881 356.3792 4.127565 4.115876
15.21941 356.0201 4.008887 4.111322
15.25138 355.6286 3.79779 4.153716
15.28472 355.5046 3.63668 4.094188
15.31626 355.6889 3.585266 3.92034
15.34959 355.9216 3.627796 3.840338
15.38132 356.215 3.738363 3.818817
15.41146 356.2945 3.766202 3.945822
15.44363 356.276 3.77761 4.001621
15.47298 356.268 3.647975 4.025939
15.50563 356.0961 3.564335 4.065172
15.53896 355.8883 3.368733 4.206354
15.57142 355.8519 3.116698 4.273149
15.60095 355.8738 2.980156 4.269891
15.63053 355.8656 2.910016 4.264537
15.6605 355.7403 2.814754 4.320636
15.69298 355.7328 2.752 4.398209
15.72415 355.8799 2.722347 4.316263
15.75748 355.9853 2.736083 4.269628
15.79082 355.9075 2.761203 4.229278
15.8213 355.7745 2.732282 4.267037
15.85463 355.8872 2.770962 4.242644
15.88439 356.0441 2.816698 4.166763
15.91413 356.0072 2.841536 4.200402
15.94474 355.8978 2.863518 4.208931
15.97767 355.9203 2.87367 4.116407
16.011 355.8908 2.843651 3.947779
16.0436 355.9576 2.871028 3.974967
16.07694 356.0423 2.935666 3.954651
16.1056 356.0258 2.929107 4.035686
16.13547 355.9801 2.828429 4.136984
16.16432 355.8827 2.780099 4.094144
16.19765 355.8146 2.689286 4.180824
16.22906 355.6976 2.627422 4.097126
16.2624 355.6002 2.628775 4.226255
16.29101 355.5774 2.600227 4.271743
16.32153 355.5435 2.579048 4.230546
16.35316 355.4178 2.464221 4.244895
16.38368 355.3514 2.355549 4.218247
16.4133 355.4469 2.362885 4.136909
16.44465 355.4465 2.343736 4.156968
16.47798 355.3103 2.312582 4.226068
16.51132 355.2939 2.292742 4.297347
16.54465 355.1394 2.217351 4.321234
16.57525 355.0291 2.106521 4.4371
16.60859 355.1161 2.055572 4.403126
16.63895 355.1329 1.977997 4.342316
16.66791 354.9951 1.911175 4.544628
16.69815 354.9709 1.874654 4.613077
16.73149 354.9674 1.821316 4.610842
16.76207 354.8328 1.716958 4.701701
16.79476 354.8458 1.674014 4.714207
16.82539 354.8341 1.642945 4.725233
16.85373 354.8841 1.68201 4.67543
16.88656 354.7178 1.769762 4.766142
16.91989 354.7336 1.823843 4.791756
16.95323 354.8264 1.819311 4.748059
16.98366 354.8081 1.679858 4.69955
17.01622 354.7302 1.608567 4.72105
17.04821 354.7776 1.589197 4.733352
17.07932 354.7592 1.549444 4.798161
17.11265 354.602 1.463316 4.813181
17.14223 354.656 1.436523 4.7912
17.17179 354.7194 1.403898 4.878514
17.20513 354.6419 1.371376 4.910765
17.23846 354.5791 1.337855 4.838783
17.2695 354.7717 1.409198 4.693292
17.29996 354.9184 1.462118 4.783292
17.32967 355.1021 1.532884 4.870193
17.3624 355.0927 1.530246 4.847408
17.39425 355.0305 1.385667 4.869152
17.42758 354.7722 1.209524 4.816102
17.45859 354.8283 1.092131 4.781618
17.4896 354.9531 1.021017 4.841126
17.52195 355.0811 1.021667 4.852296
17.55528 355.2899 1.03702 4.884501
17.58862 355.2568 1.104986 4.924902
17.62195 355.186 1.202898 4.890538
17.65519 355.157 1.262235 4.925042
17.68827 355.0844 1.280814 4.91327
17.71863 355.1002 1.222913 4.930167
17.74874 355.1907 1.097126 4.970309
17.78042 355.1916 1.013924 4.958623
17.81376 354.8179 0.9044745 5.046662
17.84513 354.8212 0.7665467 5.182724
17.87719 355.1117 0.7296467 5.205867
17.91052 355.2815 0.7346197 5.174776
17.94314 355.1602 0.8377057 5.143254
17.97421 355.143 0.9399197 5.309204
18.00755 355.19 0.9911866 5.43365
18.03978 354.9558 0.8927758 5.59901
18.07072 354.8584 0.7476845 5.600298
18.10121 354.9999 0.603398 5.587468
18.13454 355.0942 0.5301618 5.588158
18.16458 355.0127 0.5370809 5.504194
18.1966 355.1105 0.5322498 5.474257
18.22993 355.1404 0.4922721 5.537781
18.25969 354.9323 0.5248451 5.631413
18.29303 354.8775 0.5792273 5.639456
18.32496 354.8448 0.8837242 5.488639
18.35686 354.8727 1.000498 5.329869
18.38664 355.3936 0.9313143 5.159846
18.41998 355.8417 0.8937286 5.057665
18.45331 355.7327 1.283579 4.584382
18.48664 356.6025 1.523915 4.257119
18.51997 356.8138 1.661209 4.26323
18.55331 356.3434 1.640682 4.410498
18.58199 356.7639 1.07205 4.814467
18.6127 356.6404 0.6281115 5.02422
18.64429 356.5286 0.1373547 5.398707
18.67762 357.2571 359.7419 5.976299
18.71096 358.0765 359.3078 6.411142
18.74343 358.0104 358.9184 6.724802
18.77479 358.264 359.0569 6.554072
18.80789 358.8773 359.5674 6.069729
18.83889 358.0663 359.8259 5.943095
18.8692 357.3395 359.8806 5.723759
18.90011 356.9976 0.08087979 5.228615
18.93344 356.3027 0.2668389 4.628531
18.9632 355.2617 0.4284497 4.221014
18.99613 355.276 0.4116972 4.153571
19.02563 356.5585 0.2633382 4.33841
19.05721 357.6442 0.3272044 4.461565
19.08717 357.1446 0.4306216 4.582013
19.1205 357.4492 0.5802139 4.705114
19.15383 357.6362 0.9707615 4.475467
19.18524 357.4185 1.346323 4.572578
19.21387 357.4779 1.507659 4.693686
19.24661 357.4461 1.557175 4.78993
19.27573 357.2119 1.43291 4.868365
19.30693 356.9786 1.217391 4.973025
19.33617 356.9171 1.057952 5.032142
19.3695 356.8496 0.9435645 5.081741
19.40058 357.1559 0.8532876 5.116154
19.43392 357.341 0.8427464 5.075263
19.46435 357.59 0.8513079 4.918672
19.49574 357.3518 0.9389448 4.68334
19.52593 357.2209 0.9888499 4.646769
19.55769 357.1584 1.047999 4.619361
19.58711 357.0157 1.143273 4.588496
19.61855 356.7836 1.201397 4.509797
19.65129 356.7665 1.17976 4.497749
19.68247 356.7755 1.104887 4.548341
19.71218 356.7411 1.092665 4.61991
19.74256 356.7363 1.063178 4.72608
19.77267 356.6313 1.00433 4.739951
19.806 356.5742 0.9889245 4.776384
19.83564 356.4854 1.166224 4.835823
19.86741 356.4266 1.384059 4.895376
19.89844 356.3992 1.885002 4.651717
19.93167 356.0533 2.046303 4.965063
19.96231 355.347 1.549967 5.518344
19.99239 355.0769 1.637456 5.190721
20.02267 354.9928 1.626039 4.909273
20.056 355.1569 1.357227 5.093171
20.08674 355.7495 1.371842 5.111571
20.11742 356.0886 1.642179 4.914052
20.15075 355.9229 1.769396 5.131973
20.18408 355.9401 2.04675 5.073876
20.21277 355.8739 2.1253 5.050081
20.24296 355.5806 2.035185 5.072155
20.27198 355.4534 2.087227 4.925451
20.30532 355.3266 2.009447 5.073066
20.33371 355.1456 1.933271 5.076407
20.36465 354.9967 1.91861 5.018759
20.3953 354.8533 1.877695 4.947005
20.42514 354.8992 1.92447 4.867141
20.45848 354.9503 2.014871 4.863014
20.49181 355.0689 2.089897 4.873666
20.52514 355.3325 2.009527 4.886955
20.55848 355.6553 1.944091 4.848146
20.58843 355.6998 1.967642 4.928177
20.61865 355.6879 1.993028 4.831722
20.64737 355.6985 1.948061 4.95914
20.67878 355.6121 1.861511 5.064244
20.71211 355.4691 1.699821 5.055125
20.74544 355.4061 1.593999 5.078943
20.7741 355.349 1.658435 5.023139
20.80743 355.2815 1.675653 5.00766
20.83636 355.1996 1.7536 5.120914
20.86959 355.1321 1.795786 5.116171
20.90109 355.2407 1.774499 5.052131
20.93442 355.257 1.836204 4.702671
20.96776 355.3301 1.933511 4.676392
21.00109 355.3706 2.065186 4.655952
21.02925 355.2948 2.16977 4.467932
21.0616 355.2604 2.132636 4.467
21.09292 355.1552 2.178832 4.291963
21.12415 355.0396 2.189066 4.254944
21.15594 354.9624 2.223975 4.185035
21.18736 354.985 2.305408 4.068041
21.2207 355.0198 2.378318 3.93906
21.25177 355.0446 2.480898 3.903037
21.28122 355.0523 2.626911 3.923609
21.31089 355.0498 2.70571 3.850689
21.34153 354.9753 2.828266 3.800993
21.37104 354.8481 2.821352 3.886538
21.40013 354.8189 2.812861 3.927956
21.43346 354.8174 2.719028 3.928109
21.46561 354.899 2.605895 3.852689
21.49631 354.889 2.562847 3.9251
21.52505 354.8857 2.491681 4.084615
21.55645 354.8894 2.381984 4.214988
21.58565 354.8997 2.181931 4.401736
21.61523 354.9412 1.94559 4.408294
21.64856 354.9735 1.811729 4.522359
21.6819 355.0122 1.719556 4.561448
21.71507 354.9754 1.726418 4.651937
21.74776 354.8912 1.769671 4.808218
21.78106 354.9363 1.703126 4.865828
21.81212 354.9211 1.622128 4.889235
21.84545 354.8563 1.586788 4.804109
21.87564 354.9221 1.484679 4.822941
21.90898 355.0457 1.539812 4.921839
21.93908 354.9835 1.60644 4.992772
21.96836 354.8999 1.578264 4.988601
22.0017 354.9243 1.572994 4.86832
22.03166 354.9014 1.565936 4.893157
22.06265 354.8987 1.615604 4.90616
22.09308 354.8905 1.650156 4.878884
22.12612 354.8845 1.662755 4.950204
22.15946 354.8707 1.673738 4.95108
22.18873 354.8077 1.65663 4.906675
22.21869 354.7894 1.605914 4.888013
22.24915 354.7874 1.60269 4.848057
22.28072 354.8382 1.549245 4.901277
22.31244 354.9415 1.581235 4.931509
22.34578 354.9106 1.577208 4.921995
22.37911 354.8569 1.527748 4.884622
22.41024 354.8712 1.54976 4.824257
22.44219 354.8961 1.561447 4.80009
22.4703 354.884 1.597436 4.86803
22.50181 354.7831 1.611771 4.812471
22.53085 354.8192 1.580071 4.777907
22.561 354.8508 1.597629 4.576927
22.58952 354.8793 1.70092 4.605669
22.62285 354.9059 1.780812 4.690509
22.6529 354.9022 1.848667 4.749465
22.68623 354.9091 1.757156 4.831136
22.7177 354.8806 1.599782 4.750146
22.75103 354.8326 1.547965 4.76785
22.78136 354.7356 1.560936 4.754775
22.81469 354.6964 1.573386 4.788615
22.84643 354.6945 1.624625 4.748693
22.87976 354.6831 1.69062 4.70319
22.91169 354.762 1.715529 4.680685
22.94502 354.7348 1.74532 4.603838
22.97356 354.6512 1.798665 4.610702
23.0031 354.6385 1.781827 4.636215
23.03643 354.6548 1.797815 4.659954
23.06564 354.6026 1.743514 4.70551
23.0945 354.4626 1.682688 4.594242
23.12424 354.5868 1.709877 4.418702
23.15538 354.6013 1.817016 4.339391
23.18489 354.5614 1.916787 4.428913
23.21822 354.6828 2.084702 4.424832
23.25156 354.8679 2.140173 4.477557
23.28489 354.8908 2.083224 4.439508
23.31627 354.7947 1.994602 4.368275
23.34943 354.7271 1.917105 4.36421
23.38276 354.7574 1.887168 4.359115
23.4161 354.7316 1.888535 4.389975
23.44943 354.8006 1.887704 4.394042
23.48092 354.8461 1.92613 4.304493
23.51426 354.8175 1.957439 4.280882
23.54708 354.7832 1.966789 4.268188
23.57808 354.7549 2.006245 4.256008
23.60878 354.7609 2.016703 4.252344
23.63972 354.6508 2.011452 4.280816
23.66911 354.6011 2.017905 4.208766
23.69912 354.5961 1.979732 4.184028
23.73245 354.5845 1.946723 4.123008
23.76579 354.6614 2.041886 4.048606
23.79496 354.7231 2.167868 4.143801
23.827 354.8005 2.230013 4.131324
23.85799 354.8551 2.165669 4.165417
23.89133 354.8498 2.118382 3.974115
23.92466 354.8346 2.043419 3.936795
23.95799 354.9779 2.077083 3.766212
23.98792 355.0682 2.161926 3.695287
24.01928 355.1403 2.291809 3.626234
24.04845 355.1714 2.430945 3.558312
24.07767 355.1506 2.599078 3.515469
24.111 355.1547 2.70416 3.396989
24.14312 355.1594 2.813305 3.362532
24.17161 355.165 2.865416 3.317055
24.20495 355.1971 2.854928 3.305161
24.23656 355.3066 2.862971 3.268348
24.26764 355.3175 2.949731 3.192969
24.29907 355.3792 2.955075 3.164307
24.33241 355.3398 3.00602 3.095093
24.36523 355.2664 3.047774 3.146953
24.39508 355.2584 3.087881 3.189055
24.42401 355.306 3.060799 3.309435
24.45412 355.2984 3.032449 3.306835
24.48383 355.2794 2.966479 3.336542
24.51398 355.2509 2.908726 3.341403
24.54458 355.2206 2.892134 3.366006
24.57792 355.204 2.88243 3.490959
24.60924 355.2739 2.886966 3.56561
24.64194 355.23 2.819162 3.615624
24.67126 355.2315 2.737087 3.653174
24.70379 355.2449 2.693519 3.674421
24.73347 355.2185 2.704857 3.691521
24.76681 355.2844 2.707818 3.813642
24.80014 355.305 2.679879 3.881403
24.83216 355.3204 2.594762 3.873557
24.86493 355.4012 2.516965 3.851613
24.89685 355.3352 2.484885 3.805907
24.9264 355.4203 2.470192 3.958486
24.95944 355.4752 2.551467 3.990375
24.98793 355.3499 2.442065 4.180774
25.02126 355.3326 2.439658 4.205733
25.05358 355.3529 2.374321 4.309639
25.08451 355.2455 2.29207 4.343038
25.11754 355.1286 2.356032 4.380483
25.15087 355.1266 2.470454 4.433595
25.1832 354.8374 2.57391 4.454252
25.21654 354.5967 2.5831 4.505362
25.24987 354.4888 2.72567 4.326185
25.28152 354.7761 2.93549 4.306368
25.31301 354.825 3.166675 4.368308
25.34421 354.7076 3.153301 4.647346
25.37755 354.9148 3.075096 4.715342
25.4077 355.5737 3.188141 4.685172
25.43669 355.8282 3.296692 4.661528
25.46842 355.3364 3.313488 4.77294
25.50176 355.1469 3.302689 4.897153
25.53218 355.5154 3.273657 5.088513
25.56156 355.2374 3.036498 5.308805
25.59489 355.2182 2.891924 5.217844
25.62667 356.2746 3.13528 4.741263
25.6563 357.0442 3.533999 4.577879
25.68964 357.0866 3.830969 4.715497
25.72245 357.5256 4.248479 4.845129
25.75145 357.75 4.662416 4.648305
25.78349 357.3792 5.082682 4.704471
25.81323 357.6591 5.268036 5.12794
25.84564 358.2389 5.453929 5.242424
25.8767 358.3342 5.633106 5.197124
25.90861 358.0005 5.491326 5.511014
25.94195 357.6431 5.166277 5.566843
25.97528 357.713 4.975397 5.272871
26.00684 357.6911 4.786886 4.902673
26.03742 357.7097 4.523376 4.866968
26.06579 357.9673 4.472657 4.78032
26.09912 358.181 4.569041 4.755565
26.12975 358.3996 4.739437 4.82053
26.1599 358.155 4.826228 4.867662
26.19323 357.9785 4.864873 5.033823
26.22657 358.0165 4.868838 5.151813
26.25641 358.0355 4.778193 5.175706
26.28974 358.1872 4.815141 5.110383
26.31931 358.4706 4.840451 5.174218
26.35264 358.6669 4.988056 5.036186
26.38411 358.8443 5.109391 4.881145
26.41744 358.8403 5.160751 4.752372
26.45078 358.6064 5.338767 4.527963
26.48241 358.4334 5.48899 4.377817
26.51179 358.1319 5.525056 4.19949
26.54376 358.0521 5.53717 4.108984
26.57356 358.3217 5.626317 4.122192
26.60398 358.563 5.839811 3.982926
26.6324 358.7176 6.053251 3.967709
26.66573 358.7481 6.166461 3.9955
26.69596 358.3857 6.251945 3.888309
26.72926 358.2812 6.204781 3.850466
26.76036 358.1418 6.263829 3.801612
26.79212 357.9716 6.28822 3.774028
26.82267 357.9927 6.333118 3.670997
26.85601 358.3422 6.496375 3.572385
26.88934 358.6036 6.651511 3.516483
26.91987 358.5938 6.783409 3.536119
26.95321 358.5932 6.804286 3.62984
26.98486 358.3943 6.733072 3.731735
27.01814 358.1057 6.592139 3.690948
27.05147 358.2319 6.405154 3.705707
27.08285 358.2603 6.257055 3.615677
27.11534 358.068 6.149711 3.644077
27.14582 357.9254 6.014545 3.780012
27.17915 357.78 5.954531 3.852234
27.21006 357.6629 5.967689 3.930695
27.2434 357.5105 5.983134 3.973989
27.27673 357.5411 5.969862 4.03142
27.30654 357.7926 6.049226 4.030277
27.33954 357.7623 6.07462 4.02593
27.37287 357.4955 6.116277 4.01766
27.40474 357.5563 6.177927 4.00985
27.43652 357.5121 6.199671 3.926959
27.4691 357.0097 6.26568 3.993484
27.50125 356.5361 6.374678 4.127264
27.53192 356.3306 6.509111 4.247559
27.56525 356.0471 6.503545 4.508435
27.59405 355.8849 6.511611 4.657364
27.62688 355.7096 6.637769 4.523898
27.65597 355.1862 6.633898 4.358879
27.68559 354.924 6.655096 4.303569
27.71544 354.6715 6.675321 4.359015
27.74643 354.6946 6.656135 4.447086
27.77964 354.8737 6.733961 4.477418
27.81135 355.1277 7.044866 4.357359
27.84468 354.8621 7.270662 4.333544
27.87779 354.0929 7.525878 4.354792
27.90812 353.9522 7.525265 4.195434
27.94145 353.5946 7.529846 4.11212
27.97155 353.3113 7.552485 4.053609
28.00488 353.2417 7.632115 4.102928
28.03822 353.2175 7.766812 4.280012
28.06936 353.4951 7.9043 4.310366
28.09754 353.6744 7.930848 4.455935
28.13087 353.5989 7.813633 4.622556
28.16022 353.5612 7.606486 4.652824
28.19253 353.5895 7.461642 4.494502
28.22586 353.6124 7.551115 4.423186
28.25707 353.3805 7.705056 4.370863
28.2904 353.0943 7.938926 4.242351
28.32134 353.3642 8.245294 4.20403
28.3509 353.8068 8.374175 4.313706
28.38115 353.9516 8.481444 4.026093
28.41448 353.7467 8.598995 3.928902
28.44579 353.5128 8.785235 3.831702
28.47912 353.4116 8.879659 3.698752
28.50965 353.4901 8.929702 3.72914
28.54097 353.8904 8.985119 3.708949
28.57203 354.4538 9.085227 3.735557
28.60152 354.5256 9.124555 3.818636
28.63485 354.5932 8.986718 3.898375
28.66352 355.1976 8.646455 3.927346
28.69617 355.2228 8.513361 3.978842
28.72951 354.7821 8.385473 4.011408
28.75991 354.581 8.377868 4.096546
28.79324 354.55 8.503744 4.223864
28.82371 354.2687 8.710899 4.201436
28.85383 354.3323 8.980963 4.118843
28.88602 354.8313 9.295663 4.203873
28.91912 355.369 9.449892 4.322859
28.95246 355.4082 9.531118 4.362512
28.98579 355.232 9.387429 4.301592
29.01904 355.4134 9.221954 4.312374
29.05155 355.7759 9.138544 4.142384
29.08489 355.7308 9.185762 4.080651
29.11822 356.1273 9.203757 4.087888
29.1497 356.0234 9.31578 3.93638
29.18142 355.7231 9.52206 3.802232
29.21475 354.8503 9.838746 3.65797
29.24463 354.7294 10.33058 3.440542
29.27715 355.1936 11.07633 3.147205
29.31049 355.8949 12.21526 3.037947
29.34207 356.381 13.04368 3.747602
29.37132 356.5751 13.53934 4.057367
29.40428 356.6995 13.75036 5.133502
29.43567 355.2512 13.49081 6.086461
29.469 354.5646 13.22148 6.135592
29.49896 354.7965 13.10838 6.160487
29.5323 354.8502 12.85853 6.147789
29.56166 356.6645 12.47831 6.828858
29.59277 358.8513 12.60671 6.587244
29.62413 358.2611 12.16883 5.949417
29.65729 357.2811 11.50249 5.282236
29.68975 357.5927 11.52342 4.664001
29.72308 356.8018 11.5814 4.236218
29.75146 355.9461 11.7774 3.984273
29.7832 356.6275 12.15934 4.05303
29.81524 357.8983 12.07167 4.705867
29.84582 358.3974 11.46135 4.124596
29.87916 356.9745 11.32737 3.86674
29.91249 355.255 10.8662 4.029685
29.94582 355.2565 10.12835 4.093527
29.97682 357.0472 10.17003 3.881235
30.01011 357.6133 9.91985 4.490871
30.04344 358.0237 9.66722 4.41864
30.07678 358.035 9.725089 4.135379
30.11011 358.5269 9.779598 3.430836
30.14336 358.5082 10.07424 3.644026
30.17467 358.0062 10.18584 4.049016
30.2052 357.9344 10.35878 4.243443
30.23853 358.3394 10.30421 4.429429
30.26904 358.3364 10.02928 3.847242
30.30237 358.4525 9.997903 3.3036
30.3315 358.4065 9.750649 3.576638
30.3626 358.7249 9.884091 2.711092
30.39141 358.4193 10.52197 2.245032
30.42475 358.2272 10.67986 2.434673
30.45808 358.3278 10.90457 2.647327
30.48859 358.2732 11.23146 2.977265
30.51668 358.6998 11.16334 3.238372
30.54659 359.6987 10.90321 3.506842
30.57993 359.8145 10.57765 3.279014
30.61247 358.9531 10.09795 3.505766
30.64581 358.9887 9.571985 3.482603
30.67914 359.0504 9.395987 3.23695
30.71026 359.0125 9.236862 3.491024
30.74033 358.8361 9.219398 3.386454
30.76929 358.6756 9.336398 3.359368
30.80263 358.4984 9.31083 3.69674
30.8312 358.5035 9.271876 3.908413
30.86324 358.4386 9.300491 3.908996
30.89658 358.2122 9.284637 3.896031
30.92659 357.9623 9.317322 4.015975
30.95627 357.9251 9.402588 3.809644
30.9896 357.9233 9.505023 3.651823
31.01992 357.5929 9.587984 3.82289
31.053 357.4692 9.634428 3.798772
31.08537 357.6578 9.701205 3.688104
31.11699 357.8179 9.797986 3.637691
31.14684 357.8796 9.780009 3.61962
31.18017 357.9048 9.73017 3.531534
31.20969 358.0356 9.814538 3.507652
31.24302 358.1828 9.816652 3.612926
31.27463 358.0246 9.824101 3.809231
31.30519 357.7736 9.776127 3.904879
31.33431 357.1741 9.748972 3.900529
31.36569 356.9356 9.559581 4.313422
31.39895 357.0111 9.344072 4.588026
31.42917 357.3041 9.046153 4.439509
31.4625 357.0196 8.764029 4.503038
31.49342 356.4754 8.40339 4.679224
31.52216 356.2855 8.162932 4.692931
31.55336 356.056 7.959854 4.62361
31.58669 355.4388 7.594051 4.568487
31.62003 355.2147 7.14692 4.446518
31.65093 355.4856 6.925149 3.868769
31.68426 354.9386 6.926053 3.655379
31.71651 354.4726 7.180857 3.670202
31.74925 353.8874 7.459994 3.518114
31.78032 353.1595 7.556493 3.248478
31.81343 353.7038 7.551108 3.024793
31.84449 354.1377 7.592291 2.76921
31.87782 353.8245 7.571459 2.818085
31.90681 353.6731 7.581925 2.85508
31.94015 354.0521 7.627985 2.773802
31.96941 354.3487 7.486719 2.800198
32.0008 354.1259 7.538615 2.813737
32.03269 354.2731 7.531198 2.886173
32.06589 354.4217 7.418798 2.996377
32.09722 354.849 7.261839 3.119669
32.13055 354.5455 7.138121 3.259362
32.16379 354.5151 7.168304 3.648989
32.19508 354.4938 7.125249 3.775655
32.22335 354.8479 7.071853 3.98121
32.2539 355.245 7.026453 4.06912
32.28331 355.7708 6.991735 3.872691
32.31665 356.1648 7.046165 3.638793
32.34605 356.177 7.229137 3.679309
32.37654 356.1441 7.328546 3.646778
32.40987 355.8861 7.45307 3.552789
32.43927 355.6689 7.702043 3.476825
32.46907 355.6407 7.88481 3.405338
32.49902 355.8658 8.075986 3.183211
32.53235 355.9359 8.143849 3.003508
32.56232 355.8125 8.080048 3.069938
32.59248 356.0991 8.082856 3.075739
32.62582 356.2486 8.035692 3.205195
32.65495 355.8344 7.826869 3.175283
32.68559 355.6299 7.621172 3.134668
32.71489 355.2674 7.362954 3.223149
32.74823 355.3951 7.391704 3.305483
32.78156 355.4393 7.422064 3.545188
32.81489 355.3484 7.350031 3.757445
32.84358 355.4602 7.306225 3.758533
32.87426 355.8417 7.16032 3.923079
32.9032 355.816 6.989014 3.983464
32.93523 355.5573 6.886344 3.933387
32.96656 355.4161 6.655143 3.901525
32.99887 355.4248 6.604461 3.940935
33.03221 355.46 6.734724 3.898351
33.06163 355.3763 6.870021 3.802149
33.09491 355.3271 6.916905 3.601397
33.12824 355.1974 7.037186 3.4892
33.16157 355.0714 7.217627 3.545924
33.19477 354.9848 7.332289 3.464538
33.22679 355.0969 7.416046 3.394993
33.26012 355.1273 7.449445 3.344361
33.29166 355.1078 7.432338 3.484375
33.32359 355.0741 7.315898 3.496636
33.35692 354.9494 7.23526 3.473592
33.38751 354.8023 7.111687 3.610264
33.4203 354.6335 6.956058 3.66561
33.45056 354.5533 6.888512 3.619492
33.48389 354.546 6.851146 3.646842
33.51514 354.5592 6.954749 3.600194
33.54655 354.6038 7.087804 3.535921
33.57989 354.4977 7.182292 3.568271
33.61173 354.4352 7.253183 3.610419
33.64442 354.3862 7.350582 3.574628
33.67409 354.4821 7.403807 3.529514
33.70742 354.3909 7.468038 3.432899
33.74076 354.178 7.484519 3.504812
33.77399 354.2689 7.503173 3.581091
33.80732 354.4547 7.414935 3.708281
33.83953 354.4413 7.281784 3.69328
33.87178 354.4911 7.131805 3.778272
33.90254 354.5563 7.069857 3.720628
33.93455 354.5161 7.07789 3.717481
33.96515 354.4191 7.138277 3.832932
33.99384 354.3838 7.178104 3.845992
34.02717 354.3673 7.18867 3.81357
34.05895 354.3226 7.128458 3.756244
34.089 354.4304 7.197065 3.69245
34.11936 354.5015 7.293068 3.618119
34.15116 354.3971 7.35327 3.608356
34.18449 354.2699 7.395569 3.651225
34.21764 354.2537 7.349473 3.635859
34.24706 354.284 7.278748 3.621718
34.28039 354.2377 7.318519 3.424773
34.31064 354.287 7.322422 3.543872
34.34227 354.3414 7.337906 3.617354
34.37181 354.373 7.307897 3.680423
34.4024 354.396 7.284999 3.767911
34.43205 354.4573 7.24704 3.849659
34.46538 354.3443 7.228584 3.878423
34.49406 354.1465 7.137262 3.949062
34.5274 354.1082 7.060612 3.996591
34.5557 354.149 7.050457 3.981642
34.58712 354.1752 7.039106 3.99767
34.6184 354.171 7.136804 3.896684
34.64871 354.1797 7.156346 3.986454
34.67744 354.2023 7.164085 3.99721
34.70784 354.2809 7.193555 3.980294
34.73697 354.2498 7.157993 4.082644
34.77031 354.1575 7.163389 4.032232
34.80352 354.1592 7.236132 3.972849
34.83685 354.1436 7.236036 3.948385
34.8681 354.102 7.191632 4.111532
34.89932 354.1858 7.15148 4.170194
34.92963 354.2518 7.142573 4.191587
34.96297 354.2865 7.036952 4.235498
34.9963 354.2813 6.932117 4.298527
35.02723 354.2752 6.93366 4.20248
35.05906 354.2659 6.944073 4.240247
35.09225 354.2699 7.03849 4.234226
35.12183 354.1599 7.06536 4.273802
35.15223 354.1709 7.155084 4.221003
35.18556 354.2727 7.211146 4.149585
35.21648 354.2857 7.210943 4.177794
35.24982 354.2585 7.217731 4.215711
35.28315 354.278 7.204908 4.290745
35.31417 354.2332 7.102781 4.317459
35.34576 354.2535 7.052539 4.20408
35.3767 354.1776 7.034955 4.079954
35.41004 354.2632 7.096626 4.207214
35.44163 354.2322 7.140304 4.250632
35.47237 354.1479 7.128727 4.301837
35.50451 354.2054 7.075104 4.265811
35.535 354.2165 7.036216 4.272984
35.56326 354.2375 7.007572 4.195675
35.59482 354.1936 6.989943 4.248987
35.62524 354.1494 7.044877 4.293515
35.65857 354.1542 7.082932 4.284756
35.68695 354.0565 6.984221 4.314632
35.71647 354.0597 6.961732 4.222662
35.74673 354.0776 6.976893 4.149794
35.78006 354.1789 7.031455 4.213831
35.81246 354.1944 7.107414 4.272981
35.84316 354.1187 7.114346 4.244561
35.8731 354.0516 7.072164 4.161646
35.90643 354.1883 7.080165 3.937551
35.93606 354.2092 7.124332 4.013052
35.96939 354.1913 7.186988 4.136443
36.00183 354.1226 7.189653 4.17538
36.03147 354.0901 7.082548 4.298144
36.0601 354.1225 6.98065 4.204978
36.09021 354.0845 6.899691 4.191183
36.11863 354.0692 6.919516 4.167711
36.15197 354.0786 6.938414 4.267304
36.18405 354.084 6.976218 4.278128
36.21738 354.0669 7.004461 4.206943
36.24598 354.1055 7.020262 4.152258
36.2777 354.2161 7.04 4.129086
36.30631 354.2901 7.082646 4.084797
36.33709 354.2976 7.077385 4.109627
36.37043 354.214 7.079699 4.181989
36.40376 354.2643 6.994605 4.22987
36.4357 354.2103 6.951246 4.14329
36.46698 354.2957 6.981465 3.948251
36.50031 354.3322 7.054952 3.986878
36.5318 354.3049 7.096154 4.232849
36.56224 354.255 7.060206 4.216285
36.59558 354.3324 6.997391 4.200427
36.62535 354.3552 6.988479 4.152389
36.65868 354.1827 6.945378 4.185921
36.68941 354.1581 7.000798 4.087671
36.72274 354.2625 7.027903 4.168076
36.75432 354.2898 7.135038 4.121369
36.78539 354.332 7.144374 3.993448
36.8155 354.4048 7.149059 3.945133
36.84816 354.4879 7.166584 3.883682
36.8796 354.5074 7.272749 3.832256
36.91293 354.4575 7.331839 3.875826
36.94626 354.4817 7.382535 3.878148
36.97672 354.4758 7.309593 3.833983
37.00509 354.4582 7.265139 3.808487
37.03601 354.5002 7.214324 3.810949
37.0658 354.5782 7.316185 3.694548
37.09542 354.6505 7.34764 3.798051
37.12435 354.564 7.360635 3.924208
37.15712 354.4438 7.257446 3.938414
37.19045 354.4025 7.17052 3.943721
37.22123 354.3208 7.079742 4.015255
37.24908 354.3194 7.022378 3.933134
37.28149 354.3064 7.013121 3.928397
37.30995 354.2184 7.007442 4.027681
37.34328 354.1729 7.034723 4.04122
37.37662 354.1966 7.024259 4.033432
37.40995 354.2224 6.993038 4.008857
37.44007 354.1889 6.982162 4.03492
37.47059 354.2626 7.028096 4.033462
37.50174 354.2995 7.003575 4.060143
37.53508 354.3029 6.976461 4.145707
37.56657 354.3031 6.951415 4.149946
37.59675 354.3969 6.945625 4.12231
37.63008 354.4757 6.891658 4.083611
37.6626 354.3521 6.91701 3.926135
37.69299 354.3361 6.891099 4.015681
37.72632 354.4109 6.981352 4.073456
37.75529 354.3803 6.959405 4.099834
37.78627 354.3728 6.959638 4.121449
37.81525 354.3222 6.916056 4.103245
37.84858 354.2527 6.836154 4.146578
37.87785 354.319 6.843451 4.086537
37.91118 354.4028 6.840519 4.159523
37.94204 354.3724 6.920522 4.176776
37.97538 354.1307 6.946659 4.145335
38.00871 354.0111 6.962659 4.097806
38.04204 354.2802 6.961481 4.105293
38.07537 354.4492 7.066181 4.053844
38.10871 354.3635 7.088256 4.12389
38.13787 354.3911 7.044728 4.148498
38.1701 354.4585 7.051746 4.151626
38.19896 354.2644 6.975839 4.234406
38.23149 353.9893 6.906808 4.27779
38.26241 354.0551 6.925303 4.194446
38.29574 354.1961 6.937089 4.098356
38.32586 354.2638 6.83789 4.295412
38.35919 354.0528 6.811482 4.279741
38.38831 353.9267 6.754358 4.391455
38.42165 354.046 6.73024 4.416773
38.45243 353.8531 6.656621 4.416579
38.48218 353.7108 6.560587 4.454213
38.51551 353.8692 6.542868 4.467617
38.54884 354.1985 6.562574 4.512013
38.58218 354.2694 6.564601 4.400369
38.61407 354.4266 6.562975 4.290553
38.64445 354.5462 6.643325 4.171583
38.67778 354.5415 6.714067 4.145599
38.71111 354.379 6.814384 4.195899
38.74028 354.1542 6.920478 4.211001
38.77179 354.1471 6.890474 4.21733
38.80492 354.1246 6.800662 4.24736
38.83826 353.9348 6.672811 4.277538
38.87033 353.9077 6.56699 4.357057
38.89928 353.9458 6.524414 4.399818
38.92861 354.0414 6.531135 4.264932
38.95837 354.0114 6.5474 4.178112
38.98873 353.9937 6.553854 4.23732
39.01814 354.0759 6.678548 4.244225
39.05089 354.018 6.734173 4.278823
39.08422 353.8991 6.783936 4.243792
39.11755 353.8134 6.717877 4.22468
39.15089 353.5957 6.581407 4.287782
39.18073 353.6727 6.597023 4.196225
39.21037 353.731 6.665914 4.215039
39.2415 353.7347 6.689731 4.260887
39.27139 353.8218 6.672355 4.249518
39.30472 353.8896 6.639369 4.113291
39.33325 353.946 6.723122 4.075934
39.36658 353.8375 6.729303 4.135205
39.39808 353.6445 6.73544 4.141449
39.42868 353.7432 6.703096 4.128485
39.45908 353.7698 6.66539 4.110275
39.49241 353.766 6.567478 4.10384
39.5234 353.9178 6.587047 4.065881
39.55674 353.9021 6.578395 4.144585
39.59007 353.7793 6.631986 4.141066
39.6234 353.8175 6.707159 3.890077
39.65322 353.738 6.757115 3.983219
39.68655 353.7508 6.852827 4.053778
39.71614 353.8232 6.86677 4.08636
39.74947 353.9084 6.741636 4.122242
39.7828 353.8705 6.616693 4.044511
39.81425 353.7653 6.520388 4.059686
39.84758 353.7742 6.536657 4.043638
39.87896 353.649 6.610487 4.093543
39.90963 353.6056 6.657517 4.081155
39.94082 353.5952 6.659551 4.033171
39.97416 353.7562 6.644067 3.964941
40.00513 353.8258 6.66324 3.939502
40.03846 353.8232 6.624382 3.984294
40.06978 353.9522 6.626927 3.952033
40.09879 353.8935 6.600118 3.970615
40.13129 353.5487 6.576753 3.964683
40.16031 353.6255 6.570772 3.930012
40.19263 353.7543 6.601325 3.889885
40.22517 353.7272 6.668521 3.88487
40.25804 353.8132 6.704688 3.955217
40.28763 353.8419 6.711095 3.93094
40.31957 353.866 6.637653 3.972435
40.34887 353.6531 6.58981 3.770982
40.37837 353.4988 6.471394 3.910513
40.40695 353.5714 6.435611 4.011019
40.43929 353.7404 6.497066 3.977945
40.47169 353.7892 6.47747 3.969998
40.50206 353.8711 6.523972 3.990669
40.5345 353.8119 6.45682 4.034279
40.5673 353.8459 6.447454 3.932668
40.59749 353.7523 6.453545 3.982975
40.63082 353.4509 6.401782 4.183527
40.66212 353.5817 6.417388 4.176116
40.69545 353.6531 6.43462 4.125299
40.72531 353.833 6.469984 4.090727
40.7574 353.7841 6.426389 4.176371
40.78754 353.8009 6.415444 4.173912
40.81891 353.9446 6.419722 4.23423
40.85225 354.0993 6.382187 4.275831
40.88478 353.8872 6.284084 4.262173
40.91598 353.5946 6.202279 4.307965
40.94931 353.5394 6.133402 4.343513
40.98066 353.8297 6.112773 4.333443
41.01138 353.7782 6.167697 4.408299
41.04072 353.8639 6.172904 4.245767
41.07196 353.9774 6.233638 4.211863
41.10448 353.9816 6.205607 4.330816
41.13781 353.6406 6.204266 4.36377
41.17114 353.8118 6.278769 4.451752
41.20448 354.2563 6.327549 4.368576
41.23347 354.1798 6.351651 4.327107
41.26681 353.9901 6.29692 4.396356
41.29519 353.9212 6.316 4.372182
41.32777 353.7131 6.263956 4.440849
41.35798 353.5215 6.116223 4.522912
41.39003 353.7416 6.109447 4.442675
41.41826 353.9105 6.09751 4.313525
41.4516 354.0441 6.16006 4.194599
41.47974 354.1399 6.24087 4.100157
41.50965 354.1461 6.384967 3.980033
41.54078 353.9361 6.4761 3.968616
41.57384 353.8311 6.563509 3.901831
41.60409 353.7191 6.635064 3.878132
41.63742 353.653 6.633873 3.910223
41.67076 353.7095 6.607722 3.995337
41.70144 353.6942 6.585737 4.070506
41.73162 353.8626 6.571709 4.018597
41.76495 354.0352 6.574201 3.892341
41.7972 354.0355 6.465831 4.143501
41.83053 353.9718 6.529038 4.1103
41.85987 353.872 6.371126 4.162726
41.8932 353.7593 6.216359 4.125434
41.92344 353.6047 6.190711 4.056907
41.95677 353.6083 6.198395 4.132822
41.98933 353.7961 6.252248 4.004527
42.01928 353.8616 6.298986 4.050418
42.04984 353.9657 6.349205 4.062346
42.08317 354.1255 6.348513 4.018169
42.11264 354.3279 6.30665 3.948745
42.14597 354.2376 6.275102 3.943515
42.17425 353.9942 6.317613 3.893153
42.20758 354.1138 6.291595 4.012297
42.24078 354.3744 6.328734 3.963901
42.27205 354.598 6.49993 3.850168
42.30089 354.8549 6.61484 3.778931
42.33158 354.8295 6.66813 3.655595
42.36098 354.5176 6.623483 3.608474
42.39432 354.3846 6.5924 3.622769
42.42353 354.1472 6.54204 3.587438
42.45499 354.0934 6.520804 3.694444
42.48469 354.166 6.604295 3.613644
42.51696 354.2261 6.56478 3.734971
42.54892 354.299 6.475747 3.755433
42.57957 354.5301 6.327183 3.681777
42.61199 354.7507 6.244766 3.568976
42.64532 354.7211 6.272506 3.452954
42.67472 354.4608 6.267876 3.394198
42.70643 354.1499 6.281574 3.248895
42.73976 353.9565 6.347705 3.263785
42.77309 354.1383 6.445688 3.268384
42.80483 354.4682 6.50813 3.164306
42.83816 354.6323 6.524925 3.103464
42.87149 354.5765 6.475471 3.127579
42.90247 354.3938 6.400656 3.229467
42.9357 354.184 6.361097 3.222803
42.96503 353.9744 6.324477 3.297949
42.99421 353.8202 6.260894 3.329324
43.0254 353.6966 6.171756 3.428061
43.05873 353.8867 6.142298 3.352071
43.09207 354.1936 6.217369 3.323004
43.12175 354.3005 6.247377 3.448772
43.15176 354.3217 6.245268 3.326557
43.18288 354.2443 6.320963 3.256809
43.21284 354.0866 6.287134 3.354063
43.24166 353.9417 6.322629 3.441911
43.27275 353.9911 6.275602 3.552909
43.30609 354.1396 6.209967 3.589072
43.33942 354.1427 6.036909 3.627322
43.3706 353.9417 5.923807 3.68574
43.40234 354.0165 5.940719 3.687948
43.43113 353.9998 5.94212 3.759182
43.4606 353.9221 6.036203 3.696064
43.49393 353.9502 6.077528 3.706893
43.52396 354.0213 6.092401 3.644358
43.55677 353.9396 6.107055 3.595287
43.58871 353.8611 6.126641 3.616973
43.61964 353.8437 6.126605 3.673298
43.64936 353.739 6.150765 3.704082
43.67833 353.769 6.049702 3.714922
43.71167 353.9431 6.011028 3.695531
43.74103 354.0757 6.034294 3.691539
43.77436 354.2531 6.091053 3.749819
43.80769 354.1582 6.104673 3.69715
43.83887 354.007 6.132966 3.498572
43.86864 353.9291 6.143013 3.581697
43.89955 353.7816 6.190828 3.729381
43.93281 353.735 6.187241 3.805076
43.96279 353.9402 6.060938 3.879966
43.99175 353.9684 5.894734 3.835034
44.02509 353.98 5.787109 3.81088
44.05325 354.0072 5.79174 3.798717
44.08556 353.8366 5.861233 3.85079
44.11551 353.712 5.935564 3.849356
44.14884 353.7101 6.00465 3.827959
44.18217 353.8721 6.024431 3.741862
44.21551 353.7976 6.024802 3.674548
44.24328 353.5299 6.027207 3.771713
44.27441 353.5278 5.992601 3.80323
44.30775 353.7626 6.00742 3.851904
44.34108 353.6939 5.892583 3.88931
44.37038 353.6346 5.780491 3.928808
44.40273 353.7676 5.762288 3.998433
44.43606 353.7329 5.775803 4.081926
44.4674 353.6309 5.764612 4.131785
44.49713 353.6101 5.716728 4.097716
44.52662 353.5294 5.761286 3.977227
44.55887 353.4617 5.734612 4.083337
44.59108 353.4839 5.754342 4.204689
44.6237 353.5245 5.734006 4.287205
44.65548 353.3853 5.649749 4.322867
44.68881 353.4763 5.555835 4.310293
44.71865 353.6409 5.49615 4.275394
44.75198 353.7604 5.525191 4.308394
44.78449 353.5312 5.560737 4.378936
44.81783 353.3015 5.564071 4.326982
44.84822 353.2759 5.494272 4.342412
44.87869 353.2988 5.45889 4.37985
44.91173 353.2988 5.432092 4.339719
44.94179 353.4242 5.415525 4.371314
44.97375 353.4934 5.451758 4.383392
45.00491 353.3805 5.510948 4.336875
45.03825 353.3714 5.518072 4.34059
45.06967 353.3297 5.447096 4.328302
45.1019 353.2042 5.443683 4.250428
45.13056 353.1027 5.471679 4.29777
45.16265 352.9462 5.449154 4.310256
45.19589 352.812 5.400142 4.243479
45.22923 352.8022 5.382869 4.01207
45.25821 353.1066 5.335598 4.125426
45.29155 353.0489 5.381005 4.168174
45.32114 353.052 5.342712 4.191464
45.35331 353.3379 5.382338 4.134944
45.3844 353.5601 5.367013 4.08349
45.41656 353.4246 5.370015 4.035161
45.44563 353.4244 5.348513 3.994862
45.47897 353.3758 5.307301 3.970836
45.50845 353.017 5.234506 3.997866
45.54178 353.0947 5.128745 4.016117
45.57227 353.1331 5.101058 3.970453
45.6056 352.8839 5.097362 3.896757
45.63433 353.0106 5.202109 3.747178
45.66732 353.6979 5.237218 3.668889
45.69668 353.7801 5.358167 3.562361
45.73001 353.3206 5.281871 3.583014
45.75873 353.1499 5.355674 3.653005
45.79206 353.3085 5.389625 3.658925
45.82172 353.2573 5.330834 3.732453
45.85505 353.2242 5.312414 3.653939
45.88533 353.617 5.351001 3.530797
45.91866 353.9449 5.328506 3.416512
45.952 353.7019 5.356302 3.413937
45.98533 353.5552 5.307641 3.454532
46.01619 353.8059 5.240755 3.590011
46.04952 353.8722 5.168607 3.676439
46.07992 353.1396 5.077366 3.701948
46.11021 353.5926 5.070405 3.622884
46.14354 354.1199 5.158045 3.615105
46.17412 354.2915 5.153356 3.500935
46.20745 354.4961 5.03687 3.41919
46.24012 354.5212 4.94555 3.404772
46.27345 354.4577 4.901032 3.387719
46.30429 354.654 4.938846 3.287641
46.33763 354.3581 4.995724 3.384874
46.36882 354.3806 5.006084 3.429622
46.39841 354.597 5.046699 3.432897
46.43174 354.5289 4.844244 3.455819
46.46055 354.7014 4.689801 3.595085
46.4937 354.9046 4.729538 3.572206
46.52467 355.358 4.749661 3.357256
46.55455 355.8683 4.89164 3.128083
46.58335 355.4715 4.977018 2.995746
46.61501 355.198 5.029801 3.064127
46.64834 354.9998 5.119714 3.188366
46.68055 354.9167 5.10467 3.326672
46.70984 354.9049 5.053708 3.410598
46.74239 355.3221 5.071662 3.31289
46.77147 355.4169 5.075673 3.317685
46.80481 355.4097 5.0314 3.289736
46.83814 355.7494 5.076818 3.248643
46.87147 355.7297 5.093807 3.190303
46.90072 355.4391 5.102816 3.158768
46.93405 355.3632 5.152755 3.139992
46.96511 355.3098 5.138146 3.225155
46.99526 355.3364 5.182884 3.239754
47.02859 355.2205 5.211679 3.210727
47.06017 355.2367 5.089531 3.343928
47.0935 355.403 5.081051 3.299504
47.1242 355.5139 5.071205 3.197845
47.15387 355.3661 5.04969 3.251832
47.18572 355.2307 5.136694 3.120159
47.21563 355.4613 5.241167 3.203753
47.24547 355.4194 5.274802 3.279658
47.27394 355.2552 5.249122 3.284334
47.30727 355.2642 5.128747 3.281653
47.33586 355.28 5.130656 3.260722
47.36919 355.2508 5.146882 3.19978
47.40252 355.1189 5.158814 3.206092
47.43579 355.1469 5.227626 3.217419
47.46888 355.0908 5.196968 3.250029
47.50222 355.0643 5.176649 3.250447
47.53555 355.2453 5.123555 3.223838
47.5657 355.2648 5.164218 3.210971
47.59903 355.1797 5.158612 3.250946
47.63236 355.2886 5.228863 3.25274
47.6657 355.4025 5.176478 3.3234
47.69606 355.2622 5.142088 3.342667
47.72752 355.1349 5.062436 3.358174
47.76085 355.0637 5.042676 3.309304
47.79419 355.1686 5.019326 3.326421
47.82362 355.2356 5.070897 3.402069
47.8551 355.1824 5.055146 3.417807
47.88727 355.296 5.051147 3.398355
47.91788 355.4951 5.014697 3.361398
47.94959 355.3196 5.031035 3.361676
47.97856 355.1417 5.049793 3.356027
48.01189 355.1663 5.036906 3.337458
48.04169 355.1759 5.00786 3.263283
48.07502 355.1787 5.006283 3.249261
48.10836 355.2206 5.042992 3.211512
48.14169 355.3187 5.13481 3.207896
48.17326 355.3253 5.09682 3.204087
48.20632 355.3214 5.07671 3.157605
48.23642 355.3415 5.089774 3.133714
48.26936 355.2016 5.080252 3.181448
48.29856 355.1668 5.029184 3.296831
48.33189 355.3381 5.044999 3.164713
48.36084 355.4894 5.028962 3.156674
48.39118 355.5113 5.019372 3.270026
48.42287 355.5918 5.04 3.279849
48.4562 355.8615 5.020346 3.289835
48.48685 356.1212 5.008451 3.264736
48.52019 356.162 4.947993 3.243486
48.55294 356.2098 4.964102 3.154701
48.58627 356.0013 4.947387 3.267445
48.61654 355.603 4.951625 3.228109
48.64613 355.6758 4.998438 3.082777
48.6745 356.2056 5.146834 3.031351
48.70501 356.2188 5.179354 3.0337
48.73404 356.063 5.157812 3.050791
48.76737 356.1508 5.149275 2.917899
48.79601 356.072 5.150701 2.921583
48.82581 355.8457 5.172491 2.990427
48.85884 355.7005 5.218099 3.069535
48.88998 355.9479 5.293881 2.945095
48.92284 355.9092 5.341082 2.863704
48.95617 355.9706 5.333102 2.949861
48.98951 356.2046 5.386428 2.895835
49.02284 356.3347 5.37636 3.000951
49.05326 356.1745 5.379173 2.927131
49.08601 356.1178 5.347003 2.923167
49.11745 356.1521 5.36562 2.845093
49.14879 355.9028 5.380564 2.865803
49.18074 355.6703 5.363403 3.011526
49.21407 355.7672 5.324189 3.056316
49.2474 355.8824 5.266797 3.015296
49.27762 356.0338 5.185488 2.975429
49.30984 356.1339 5.223474 2.974563
49.33898 356.1801 5.225898 2.984938
49.36875 356.0686 5.319896 3.073309
49.40209 355.9487 5.294302 3.078343
49.43542 355.8956 5.311993 3.006561
49.46875 355.869 5.405771 2.819074
49.49727 355.955 5.46549 3.035187
49.52721 356.024 5.457228 3.09485
49.56054 355.9846 5.361926 3.162871
49.58966 355.7097 5.180676 3.123308
49.6189 355.5731 5.115804 3.113819
49.65223 355.6297 5.032434 3.08946
49.68335 355.2432 4.921607 2.816396
49.71626 354.9129 4.81008 2.842192
49.74959 355.3109 4.851904 2.945498
49.7797 355.8357 4.982456 2.861002
49.81137 355.4243 5.036788 2.904728
49.84471 355.1069 5.003297 2.858957
49.87709 355.1525 4.888279 2.878465
49.91043 355.4277 4.77195 2.907834
49.94375 355.1514 4.704217 2.931486
49.97592 354.9828 4.71419 2.986062
50.00925 354.967 4.602056 3.079484
50.04121 354.7809 4.649435 2.923818
50.07454 355.0461 4.779119 2.734636
50.10511 355.3749 4.829581 2.624337
50.13528 355.4724 4.858287 2.629158
50.16584 355.4217 4.809329 2.720221
50.19648 355.3931 4.809877 2.698076
50.22981 355.3713 4.716729 2.69274
50.26296 355.349 4.599703 2.792322
50.29629 355.4041 4.598142 2.849266
50.32672 355.2671 4.589166 2.838158
50.35734 355.2028 4.582323 2.756374
50.39067 355.3076 4.629161 2.739346
50.42373 355.4489 4.709308 2.763629
50.45362 355.4605 4.786112 2.860024
50.48362 355.5346 4.775752 2.896057
50.51696 355.4201 4.673043 2.940366
50.54661 355.2722 4.585623 3.015225
50.57723 355.2894 4.590173 2.984476
50.61057 355.3334 4.53895 3.157578
50.64234 355.212 4.499642 3.192901
50.67487 355.278 4.520497 3.071931
50.70511 355.3463 4.55224 3.038904
50.73618 355.2271 4.607772 3.105395
50.76951 355.2421 4.695829 3.0968
50.8006 355.3574 4.695318 3.152489
50.82955 355.3584 4.66637 3.125856
50.86184 355.259 4.658799 3.030589
50.89081 355.1664 4.635633 3.034553
50.92396 355.1992 4.692289 2.965535
50.95729 355.2022 4.713754 2.991351
50.99063 355.1347 4.760453 2.980309
51.02061 355.1525 4.678242 2.954639
51.0535 355.1695 4.623656 2.958783
51.08684 355.1647 4.614165 2.961632
51.12017 355.1441 4.616105 2.995797
51.1505 355.0835 4.642705 2.994153
51.18095 355.1056 4.611455 3.00625
51.21429 355.1032 4.565765 3.044137
51.24762 355.0883 4.505584 3.096066
51.27785 355.1627 4.485251 3.049972
51.31119 355.2727 4.464688 2.958557
51.34014 355.2779 4.413684 3.033638
51.37347 355.1167 4.448177 3.032383
51.40681 355.056 4.461795 3.024165
51.43716 355.2344 4.545047 2.868347
51.47049 355.166 4.654521 2.85073
51.50318 355.3108 4.679217 3.056762
51.5326 355.2966 4.564909 3.156605
51.56593 355.2192 4.446656 3.223831
51.59671 355.2092 4.296025 3.231721
51.62963 355.2903 4.241545 3.357231
51.66297 355.382 4.192789 3.300622
51.6959 355.3085 4.058743 3.429165
51.72664 355.369 3.998133 3.426445
51.75708 355.4368 3.993457 3.387072
51.7897 355.4913 3.956542 3.39404
51.82089 355.4233 3.926236 3.36498
51.84915 355.0806 3.95976 3.372701
51.88137 354.998 4.012197 3.343355
51.9147 355.0593 4.125794 3.379111
51.94465 355.1654 4.131318 3.447624
51.97562 355.2189 4.105327 3.562615
52.00506 355.332 4.037595 3.574529
52.03515 355.5181 4.005899 3.627808
52.06848 355.287 3.738555 3.784963
52.09734 355.2568 3.529142 3.98323
52.13067 355.1993 3.342786 4.151835
52.16401 355.2844 3.199594 4.184454
52.19425 355.5117 3.109528 4.114501
52.22758 355.6531 3.095823 4.135139
52.25919 355.6584 3.013226 4.190041
52.29104 355.7531 2.947161 4.085561
52.3227 355.8883 2.839677 4.177712
52.35586 355.4384 2.763091 4.192175
52.38919 355.401 2.660372 4.388419
52.42007 355.602 2.570248 4.558018
52.45228 355.5569 2.333566 4.663485
52.48114 355.7195 2.000066 4.770125
52.51447 355.8349 1.669647 4.839879
52.54375 355.8358 0.4887528 5.139278
52.57602 355.7992 358.1821 5.391442
52.60735 356.0739 354.5163 5.901149
52.64029 356.5931 349.9094 6.182961
52.66888 357.324 344.2985 6.317606
52.70221 358.1527 340.0814 6.149079
52.73297 359.0158 334.5531 6.127334
52.7638 358.8812 329.3993 6.855009
52.79713 358.321 324.7785 6.936695
52.83046 358.1602 321.8419 6.795976
52.8638 357.7965 319.0556 7.93991
52.89403 357.5308 317.6766 7.79634
52.92618 357.2408 317.4709 8.217552
52.95866 357.257 316.6744 8.226773
52.98778 357.6776 315.8491 8.625354
53.02111 357.2673 315.5251 8.039029
53.05016 356.7479 315.6463 7.877793
53.0835 357.1263 316.0101 7.988032
53.11605 357.9071 316.9346 7.862331
53.14938 357.9804 317.9041 8.019072
53.17813 358.7039 318.9533 7.752702
53.21126 359.0439 319.5881 7.685184
53.24459 358.341 320.1503 7.719646
53.27661 358.6095 320.8273 7.523816
53.3093 359.2335 322.1293 7.37868
53.34229 358.4596 323.4669 7.175068
53.37126 358.7375 325.023 7.57965
53.40254 359.1417 326.1528 7.952901
53.43263 358.3918 327.7442 7.794461
53.46596 358.4987 329.4565 7.471483
53.49525 359.4176 332.3622 7.406293
53.52859 359.505 334.5886 7.604435
53.5584 359.2384 336.7734 7.57547
53.58853 358.9202 339.5905 7.255162
53.61801 359.2476 342.853 6.986574
53.64828 359.5514 345.3423 7.228932
53.67981 358.6422 348.4113 7.284107
53.71165 357.6891 350.9953 7.126142
53.74499 357.7741 353.8806 7.237159
53.77646 358.3654 355.6378 7.027236
53.8098 358.1031 356.798 6.710423
53.84247 358.6869 358.094 6.276536
53.87252 358.5892 358.74 5.640294
53.90586 358.898 359.3584 5.371692
53.93543 358.1893 359.6417 5.455396
53.96554 358.3132 359.8665 5.48003
53.99558 358.3972 0.3592833 5.338764
54.02892 358.1475 0.4866749 5.337962
54.05785 358.3207 0.637503 5.376609
54.09118 358.5841 0.9296895 5.542861
54.12363 358.2423 1.091165 5.410604
54.15494 358.0329 1.444931 5.191375
54.18468 358.097 2.086253 5.20788
54.21473 358.2118 2.437449 5.252255
54.24581 358.184 3.231223 5.150672
54.277 358.1871 4.182733 5.135548
54.30692 358.1746 5.0856 5.063619
54.34025 358.1245 5.678885 5.059358
54.36977 358.2112 6.538044 4.924541
54.39957 358.2613 6.966082 4.847143
54.42826 358.2345 7.078017 4.996473
54.46153 358.4069 7.156473 4.958034
54.49032 358.4703 7.224337 4.675415
54.52365 358.4027 7.146258 4.481408
54.55221 358.3597 7.072927 4.242863
54.58234 358.3766 7.142668 4.164734
54.61446 358.3687 7.164612 4.077426
54.64468 358.2551 7.123396 4.036132
54.67657 358.2249 7.135705 4.070104
54.70752 358.2247 7.109059 4.160629
54.73989 358.2551 7.133124 4.072599
54.77323 358.2634 7.117777 4.132451
54.8032 358.3352 7.048888 4.144103
54.83654 358.2522 6.963998 4.050682
54.866 358.1811 6.927711 4.005122
54.89933 358.2318 6.915016 3.903592
54.92935 358.3364 6.917473 3.963211
54.95922 358.2491 6.960995 3.982498
54.99066 358.0651 6.949984 4.027491
55.02399 357.9751 6.853977 4.06314
55.05545 357.9444 6.82369 3.936046
55.08651 357.8765 6.771671 3.941523
55.11621 357.9985 6.7363 3.860565
55.1461 358.1417 6.691294 3.843187
55.17431 358.1012 6.678327 3.794377
55.20424 358.0201 6.729675 3.754987
55.23757 358.011 6.811862 3.725765
55.27004 358.0564 6.854548 3.63766
55.30112 358.0318 6.875267 3.638518
55.33308 358.0106 6.915434 3.55694
55.36386 358.0526 6.941421 3.592124
55.39404 358.0748 6.905884 3.552236
55.42737 358.0593 6.874051 3.504937
55.4607 357.9411 6.879297 3.497612
55.49077 357.9557 6.855345 3.510499
55.5241 358.0111 6.811199 3.52299
55.55476 357.9675 6.730833 3.494091
55.58809 357.9091 6.677464 3.49413
55.62072 357.8629 6.701625 3.431762
55.6513 357.949 6.659901 3.583091
55.68395 358.0685 6.661538 3.574514
55.71729 358.0768 6.66044 3.620557
55.74611 358.0694 6.628446 3.599419
55.77944 357.902 6.550081 3.634958
55.81019 357.7914 6.52006 3.588076
55.8413 357.8347 6.560604 3.588595
55.8709 357.8154 6.559036 3.614689
55.90211 357.7277 6.630196 3.531176
55.93334 357.8457 6.695588 3.477391
55.96531 358.0585 6.753941 3.431941
55.99865 358.0304 6.832966 3.437474
56.03074 357.963 6.838147 3.418491
56.06163 357.9538 6.81808 3.397201
56.09496 357.7621 6.755626 3.33532
56.12489 357.7198 6.715944 3.316838
56.15483 357.8184 6.697355 3.385362
56.18816 357.6367 6.625969 3.460721
56.21778 357.593 6.687458 3.428789
56.24641 357.9763 6.771477 3.329206
56.27907 358.2577 6.717525 3.482341
56.30861 358.1205 6.650116 3.470252
56.33912 358.1054 6.639238 3.441168
56.36876 358.3269 6.595719 3.573051
56.4021 358.0907 6.498998 3.548695
56.43543 357.7148 6.407323 3.574907
56.46876 357.6907 6.395437 3.364394
56.49995 357.6575 6.39269 3.40039
56.53329 357.4753 6.46912 3.426243
56.56483 357.5127 6.524517 3.433106
56.59544 357.8108 6.524699 3.40133
56.62877 357.8061 6.526917 3.25228
56.6609 357.6866 6.574385 3.240728
56.69037 357.8398 6.593555 3.28184
56.72049 357.8846 6.577978 3.299193
56.74944 357.7896 6.496719 3.327843
56.78061 357.6677 6.405897 3.328622
56.81354 357.6471 6.259581 3.316654
56.84251 357.7902 6.213507 3.289164
56.87584 357.8091 6.217452 3.155231
56.90786 357.7008 6.269496 3.078148
56.9384 357.7453 6.288871 3.124745
56.96889 357.7051 6.379331 3.127456
57.00222 357.6078 6.379395 3.18585
57.03555 357.5951 6.349495 3.180153
57.06889 357.5642 6.254071 3.172462
57.10222 357.4679 6.135862 3.166446
57.13555 357.3397 6.059651 3.229166
57.16888 357.3724 6.066254 3.203411
57.19775 357.469 6.131301 3.153369
57.23064 357.4859 6.166405 3.110252
57.26398 357.4739 6.226706 3.088213
57.29731 357.4307 6.248861 3.115291
57.3302 357.4058 6.284211 3.109816
57.36141 357.343 6.261278 3.176643
57.39193 357.3385 6.248638 3.228955
57.42526 357.3398 6.126599 3.317998
57.4586 357.3244 6.049279 3.299254
57.49193 357.3582 6.028258 3.24065
57.52168 357.4332 6.100233 3.092767
57.55223 357.3756 6.162494 3.112208
57.58237 357.3898 6.23575 3.22357
57.61451 357.4328 6.307021 3.267586
57.64592 357.377 6.268955 3.286478
57.67925 357.2831 6.181289 3.210889
57.70976 357.2483 6.101303 3.200717
57.74055 357.175 6.059998 3.205302
57.77389 357.1517 6.091002 3.174217
57.80722 357.1854 6.07033 3.240826
57.83692 357.2062 6.073309 3.222563
57.8667 357.2422 6.072849 3.184781
57.90004 357.2385 6.053055 3.148703
57.92962 357.1995 6.066764 3.066551
57.959 357.1112 6.081571 3.010453
57.99233 357.2042 6.092467 3.012179
58.02341 357.1878 6.117309 3.004478
58.05674 357.1094 6.106067 2.998001
58.08816 357.0532 6.123556 2.995047
58.11769 357.0798 6.13372 3.035493
58.14692 357.0918 6.124948 3.007998
58.17919 357.0471 6.125382 3.018142
58.21108 357.0118 6.134244 2.927038
58.24253 357.0989 6.156544 2.949388
58.27344 357.1176 6.095994 3.059499
58.30677 357.1053 6.081309 3.022743
58.3381 357.0497 6.043404 3.075873
58.36809 357.0373 5.965374 3.087632
58.40142 356.9427 5.903369 3.048667
58.43476 356.8507 5.815192 3.078685
58.46809 356.8697 5.827705 3.079777
58.50083 356.8116 5.851088 3.162381
58.53207 356.7821 5.826184 3.163853
58.56541 356.835 5.755381 3.159152
58.59654 356.8757 5.717246 3.066352
58.62988 356.8983 5.723891 3.108005
58.66108 356.9336 5.713698 3.163477
58.69442 356.92 5.672629 3.188167
58.72471 356.9272 5.651371 3.192659
58.75805 356.922 5.613793 3.274376
58.78719 356.8251 5.565946 3.251377
58.82052 356.743 5.581702 3.262057
58.85008 356.7829 5.568742 3.246138
58.88342 356.8382 5.564105 3.248124
58.91505 356.8386 5.5428 3.31348
58.94469 356.8388 5.486672 3.426905
58.97371 356.7612 5.437322 3.537871
59.00688 356.7929 5.316742 3.65365
59.04021 356.6974 5.238721 3.741029
59.07355 356.6145 5.120764 3.761292
59.10195 356.6679 4.997548 3.868728
59.13192 356.7231 4.880329 3.937657
59.16525 357.0495 4.798976 3.854848
59.19839 357.0059 4.603549 3.579652
59.23173 356.8568 4.494018 3.618564
59.26506 356.4022 4.487636 3.77304
59.29793 356.2527 4.661386 3.916793
59.32808 356.2222 4.869759 3.993002
59.35876 356.1425 4.902429 4.150353
59.3914 355.9649 4.787409 4.131413
59.42113 356.1362 4.718208 4.053493
59.45315 356.3436 4.708587 3.955287
59.48632 356.0026 4.643559 3.906752
59.51965 355.5274 4.616633 3.909652
59.55061 355.2798 4.581505 4.039233
59.58394 355.1865 4.635082 4.254226
59.61679 355.2748 4.549335 4.482885
59.64921 355.2457 4.283275 4.622602
59.68052 355.1763 3.952475 4.69093
59.71218 355.3869 3.654379 4.799809
59.74265 355.5246 3.394953 4.680509
59.77599 355.424 3.246901 4.613038
59.80592 355.5027 3.216356 4.363794
59.8362 355.4789 3.308074 4.138706
59.8656 355.3468 3.462002 3.914165
59.89508 355.2301 3.715578 3.67765
59.92724 355.1548 3.829924 3.475508
59.96058 354.7859 4.083539 3.371863
59.99277 354.4906 4.483583 3.134328
60.02611 354.5753 4.645454 3.065932
60.05408 354.6251 4.684876 3.124485
60.08712 354.6543 4.712065 3.077566
60.11737 354.7162 4.6729 3.055722
60.15071 354.7472 4.659417 2.995169
60.18117 354.7466 4.637608 2.877983
60.2145 354.7263 4.644001 2.787826
60.24783 354.7283 4.741832 2.818822
60.28111 354.7923 4.859189 2.931945
60.31382 354.8841 4.829518 3.076298
60.34403 354.8589 4.639653 3.117235
60.37492 354.7573 4.489219 3.087067
60.40826 354.7881 4.433702 3.158918
60.44159 354.8825 4.431534 3.218062
60.4723 354.7625 4.388628 3.297102
60.50429 354.6533 4.339568 3.286055
60.53762 354.7557 4.340423 3.303971
60.57096 354.8263 4.398431 3.257796
60.60429 354.7614 4.437918 3.157179
60.63352 354.6278 4.457529 3.163431
60.66591 354.589 4.479645 3.190199
60.6987 354.6738 4.532323 3.175289
60.72977 354.7555 4.562001 3.153332
60.7631 354.7674 4.535389 3.150174
60.79537 354.7753 4.561516 3.125817
60.82443 354.6472 4.521223 3.11764
60.85595 354.5989 4.50898 3.123433
60.88592 354.4601 4.476994 3.161273
60.91659 354.3943 4.461712 3.107642
60.94728 354.6082 4.490973 3.053797
60.98061 354.859 4.48844 3.153857
61.00941 354.9518 4.542047 3.070316
61.04275 354.809 4.434486 3.169601
61.07298 354.8242 4.443566 3.119602
61.10576 354.7922 4.459861 3.098912
61.13617 354.6904 4.468635 3.136109
61.1695 354.6976 4.483196 3.070795
61.20284 354.7178 4.465881 3.138787
61.23617 354.6455 4.475178 3.092499
61.26663 354.5675 4.481855 3.051806
61.29665 354.6483 4.481918 3.010187
61.32837 354.6282 4.534804 3.019053
61.3596 354.5631 4.543681 3.06163
61.38885 354.5445 4.581271 3.059204
61.42218 354.5611 4.560948 3.109139
61.45333 354.509 4.559167 3.098353
61.48666 354.5724 4.522903 3.10903
61.51999 354.7863 4.497095 3.15413
61.55333 354.7277 4.476566 3.173769
61.58377 354.585 4.442288 3.224713
61.61501 354.4904 4.408087 3.291972
61.64385 354.5017 4.507237 3.222479
61.67718 354.4761 4.546332 3.347132
61.70951 354.5644 4.550327 3.469787
61.74284 354.5963 4.472884 3.594342
61.77398 354.5258 4.321197 3.66912
61.80466 354.5037 4.153641 3.667863
61.83799 354.5481 4.011955 3.801546
61.86826 354.5612 3.971135 3.72863
61.89671 354.5312 3.984303 3.836146
61.92999 354.5208 4.018658 3.89344
61.95997 354.498 4.094714 3.893883
61.99147 354.5392 4.105297 3.913667
62.02481 354.6067 4.082574 3.857063
62.05492 354.6007 4.095605 3.798602
62.08591 354.6088 4.122271 3.887976
62.11746 354.6116 4.152108 3.857574
62.14695 354.5451 4.107265 3.867104
62.18028 354.4992 4.067923 3.863478
62.21361 354.5568 4.071693 3.849116
62.24694 354.5839 4.082505 3.904009
62.27597 354.5667 4.068103 3.867453
62.30785 354.571 4.010626 3.819926
62.34119 354.5692 4.01418 3.744442
62.37302 354.5753 4.062778 3.811465
62.40636 354.5529 4.12905 3.865277
62.43824 354.5128 4.079849 3.938095
62.47157 354.4838 3.98931 3.908798
62.50103 354.4719 3.903993 3.856961
62.53052 354.4275 3.928969 3.90983
62.56121 354.4326 4.014408 3.889839
62.59454 354.4426 4.030604 3.956871
62.62727 354.4596 4.040652 3.90527
62.65657 354.4816 4.010394 3.90069
62.68713 354.4714 4.016781 3.923395
62.72046 354.4955 4.02454 3.894817
62.7538 354.4688 3.962953 3.951455
62.78351 354.4922 3.949962 3.939323
62.814 354.405 3.950315 3.947505
62.84454 354.3427 3.953343 3.960038
62.87509 354.3517 3.993285 3.914023
62.90642 354.3811 3.999449 3.923475
62.93975 354.3228 4.054837 3.895678
62.97309 354.313 4.051243 3.926749
63.00642 354.306 4.004491 3.885904
63.03596 354.2995 4.002015 3.840946
63.06644 354.3132 4.072165 3.676705
63.09669 354.2984 4.111032 3.799425
63.12708 354.3122 4.181769 3.821858
63.16041 354.2965 4.188047 3.903505
63.19374 354.2718 4.042221 3.93783
63.22567 354.1969 3.922902 3.84916
63.25901 354.1022 3.891484 3.911333
63.29021 354.072 3.961718 3.860066
63.32355 354.0233 4.006107 3.947471
63.35688 354.0174 3.988745 3.950764
63.39022 354.0905 3.941287 3.911511
63.42355 354.1443 3.905382 3.866455
63.45529 354.1735 3.907897 3.849137
63.48567 354.1667 3.913855 3.867662
63.51883 354.1642 3.959645 3.832609
63.54943 354.1048 3.983885 3.868421
63.58276 354.0551 3.953164 3.889641
63.61166 354.073 3.949165 3.83437
63.64499 354.1024 3.963319 3.792969
63.67833 354.1076 3.964839 3.787919
63.70931 354.1431 3.9623 3.790904
63.73775 354.1359 3.940657 3.754685
63.77052 354.0848 3.92742 3.698162
63.79903 354.0721 3.935682 3.615875
63.83237 354.1344 4.022899 3.554617
63.86509 354.1891 4.046257 3.682009
63.89645 354.2253 4.040621 3.684873
63.9253 354.1694 3.956843 3.710954
63.9586 354.1744 3.899642 3.712373
63.98868 354.1739 3.825764 3.679698
64.02066 354.1185 3.732615 3.734172
64.05399 354.1469 3.751454 3.680934
64.08472 354.0916 3.741505 3.757637
64.11805 354.0729 3.825438 3.659185
64.14752 354.1126 3.829439 3.627992
64.17625 354.1659 3.821933 3.585583
64.20665 354.1974 3.863223 3.546134
64.23998 354.1853 3.911501 3.578638
64.27144 354.1175 3.928676 3.617774
64.30477 354.1121 3.894352 3.628664
64.33472 354.0856 3.846884 3.662348
64.36805 354.0726 3.759398 3.661572
64.40138 354.1882 3.74193 3.653503
64.43472 354.2235 3.772827 3.667185
64.46805 354.2569 3.775019 3.686424
64.49863 354.1492 3.831092 3.602822
64.52935 354.1488 3.870582 3.5034
64.55882 354.1376 3.819759 3.610353
64.59215 354.1909 3.825545 3.585992
64.62451 354.2076 3.755566 3.649642
64.65635 354.2585 3.687337 3.663772
64.68968 354.2405 3.607986 3.642897
64.71957 354.1076 3.569149 3.617984
64.75291 354.1445 3.599901 3.570284
64.78564 354.166 3.598554 3.635569
64.81657 354.1489 3.709415 3.536242
64.84823 354.1773 3.713387 3.538537
64.88156 354.2208 3.683596 3.493981
64.91489 354.2267 3.703404 3.391882
64.94823 354.2309 3.741889 3.437516
64.97942 354.187 3.796251 3.467289
65.0102 354.1598 3.81861 3.498993
65.04283 354.164 3.781239 3.517349
65.07232 354.1669 3.698673 3.560922
65.10566 354.17 3.678631 3.582601
65.13693 354.1703 3.629338 3.630033
65.16756 354.2595 3.640509 3.468398
65.19976 354.2638 3.698562 3.477623
65.23125 354.209 3.728141 3.602773
65.26459 354.1899 3.883637 3.573367
65.29792 354.1584 3.872148 3.667865
65.32804 354.1401 3.7501 3.693369
65.36137 354.0869 3.701573 3.713421
65.39471 353.8891 3.573265 3.744108
65.42638 353.9304 3.59734 3.756448
65.45892 353.9399 3.584091 3.797397
65.49226 353.9356 3.629215 3.808389
65.52216 353.9528 3.648355 3.823244
65.55483 353.8768 3.622371 3.76323
65.58798 353.9251 3.600938 3.727204
65.62132 354.1154 3.614241 3.723811
65.65463 354.0913 3.653698 3.73091
65.68469 353.9601 3.659597 3.747763
65.71358 353.9085 3.658786 3.742421
65.74449 353.8442 3.642905 3.703128
65.7738 353.7236 3.66068 3.685329
65.80624 353.6861 3.633088 3.630044
65.83957 353.8731 3.675155 3.464037
65.8729 353.9634 3.714936 3.449766
65.90234 353.9802 3.737906 3.522223
65.93568 354.01 3.751968 3.50003
65.96495 353.9848 3.71385 3.507278
65.99828 353.908 3.642085 3.483611
66.02987 353.8397 3.595176 3.517973
66.0632 353.8168 3.608949 3.472314
66.09653 353.8612 3.730692 3.328589
66.12987 353.766 3.747668 3.541177
66.15973 353.7535 3.777721 3.63741
66.19189 353.7137 3.682551 3.689611
66.2205 353.7571 3.546556 3.669116
66.25217 353.7723 3.457058 3.702227
66.28516 353.8717 3.295635 3.622764
66.31849 354.0406 3.282965 3.600428
66.3481 354.073 3.363543 3.561064
66.38143 353.9703 3.412248 3.551714
66.41071 353.8977 3.361302 3.521593
66.44404 353.8243 3.27469 3.511136
66.47714 353.8508 3.25686 3.467014
66.50982 353.9984 3.319916 3.386266
66.54315 354.1628 3.442622 3.280863
66.57554 354.2291 3.511277 3.302796
66.60887 354.3072 3.559952 3.327981
66.6422 354.4497 3.536874 3.342169
66.67175 354.4492 3.437079 3.347021
66.70124 354.3195 3.371497 3.229093
66.73237 354.3408 3.391668 3.257721
66.76571 354.4039 3.50352 3.189812
66.79448 354.5143 3.613331 3.201512
66.82526 354.5403 3.658723 3.166104
66.85391 354.4387 3.698344 3.068835
66.88596 354.3388 3.717429 2.997266
66.91505 354.2377 3.762012 2.889381
66.94838 354.6416 3.909476 2.872883
66.98064 355.0112 4.075395 2.816289
67.01134 355.1075 4.202134 2.721476
67.04468 354.8292 4.167339 2.698304
67.07802 354.523 4.071511 2.738904
67.10876 354.4777 4.040356 2.733221
67.14162 354.6765 4.032952 2.791545
67.1729 354.6841 4.040725 2.802993
67.20623 354.6411 3.919253 2.836169
67.23859 354.8844 3.786865 2.892429
67.27193 355.1393 3.799877 2.778608
67.3022 355.0474 3.820317 2.782866
67.33553 355.0625 3.93209 2.683585
67.36375 355.1383 3.954797 2.840385
67.39341 354.7477 3.913965 2.856017
67.42647 354.4737 3.736156 3.080907
67.45584 354.7233 3.545112 3.113593
67.48917 354.7783 3.424639 3.107135
67.52083 354.6841 3.242168 3.137531
67.54963 354.7675 3.083472 3.185045
67.57973 354.9214 2.980916 3.213451
67.61004 354.8615 2.960006 3.229172
67.64089 354.9103 2.963162 3.256433
67.67422 354.9918 3.01275 3.204416
67.70548 354.9984 3.099842 3.238433
67.73882 354.9725 3.127516 3.220118
67.77086 355.0282 3.080303 3.187411
67.80419 355.059 3.087076 3.018682
67.83752 355.1111 3.101058 3.052753
67.86807 355.1332 3.14371 3.080246
67.90102 355.074 3.121528 3.1273
67.93404 355.0007 3.068573 3.186755
67.96737 354.8932 2.99425 3.075269
68.0007 354.6733 3.12763 2.861058
68.03403 354.6575 3.114955 2.864719
68.06465 354.6568 3.141291 2.793526
68.09798 354.6688 3.135238 2.853645
68.13132 354.7238 3.161391 2.859326
68.16466 354.6944 3.175018 2.838482
68.19799 354.7069 3.177526 2.775841
68.22925 354.7203 3.239149 2.608614
68.26259 354.709 3.24292 2.723461
68.29592 354.7545 3.293455 2.730338
68.32567 354.6762 3.253358 2.811832
68.35618 354.6865 3.152041 2.773448
68.38918 354.649 3.094153 2.759683
68.42251 354.6104 3.001483 2.788004
68.45444 354.5883 3.030344 2.794417
68.4848 354.6904 3.170928 2.75999
68.51527 354.7162 3.256108 2.742423
68.54731 354.738 3.302659 2.705657
68.58064 354.6929 3.283915 2.666047
68.61398 354.7619 3.216021 2.674393
68.64263 354.738 3.210947 2.720041
68.673 354.7218 3.244027 2.698706
68.7028 354.7234 3.227178 2.701657
68.73614 354.7635 3.186309 2.71191
68.76562 354.7643 3.133135 2.739053
68.79895 354.6885 3.136033 2.668334
68.82746 354.6912 3.182496 2.624549
68.86079 354.7752 3.226985 2.579679
68.89413 354.7963 3.350586 2.433707
68.92549 354.7952 3.40297 2.45858
68.95523 354.8322 3.44346 2.470429
68.98847 354.771 3.41836 2.531037
69.01823 354.8154 3.327327 2.524254
69.05157 354.862 3.275679 2.514883
69.0849 354.8156 3.204464 2.591553
69.11643 354.8293 3.15885 2.50763
69.14977 354.8175 3.161517 2.518353
69.1814 354.9135 3.290791 2.483387
69.21474 354.9658 3.427637 2.396419
69.24689 355.096 3.542452 2.327771
69.27528 355.1324 3.621979 2.29683
69.3086 355.0761 3.644525 2.245928
69.33936 355.064 3.633007 2.292878
69.37269 355.0725 3.605417 2.349274
69.40602 355.0807 3.549861 2.390786
69.4381 355.1325 3.429126 2.476898
69.47083 355.1424 3.344171 2.494093
69.50417 355.1082 3.257924 2.5504
69.5375 355.1233 3.287477 2.536617
69.57083 355.1743 3.353717 2.455899
69.60168 355.2315 3.321037 2.607804
69.63501 355.2065 3.295699 2.61529
69.66466 355.1406 3.238344 2.676139
69.69799 355.1717 3.219178 2.734673
69.7276 355.1885 3.136553 2.703397
69.75858 355.0992 3.087693 2.696864
69.79191 355.1024 3.100734 2.73263
69.82392 355.1396 3.099993 2.815795
69.85725 355.2144 3.14582 2.83567
69.89059 355.1955 3.099256 2.841394
69.91945 355.2134 3.123039 2.768709
69.95011 355.2483 3.134418 2.754617
69.98078 355.2571 3.171955 2.734297
70.01411 355.1613 3.197079 2.79564
70.04651 355.1029 3.198039 2.824615
70.07984 355.0927 3.147798 2.858018
70.11091 355.1551 3.063951 2.932157
70.14149 355.1605 3.014301 2.927678
70.17482 355.1534 2.988553 2.894724
70.20493 355.1931 3.011699 2.728374
70.23444 355.1886 3.031229 2.826212
70.26701 355.1603 3.10074 2.869403
70.30034 355.2058 3.185942 2.946066
70.33367 355.1958 3.10577 3.020933
70.36509 355.1696 3.03967 3.033581
70.39842 355.1297 2.865524 3.043329
70.43176 355.0606 2.843369 3.024118
70.46346 355.0843 2.893139 3.128661
70.4968 355.1168 2.924804 3.17098
70.53013 355.0939 2.916428 3.16202
70.56347 355.1413 2.894732 3.136689
70.59598 355.1001 2.87636 3.132675
70.62746 355.0704 2.869631 3.1529
70.66079 355.0415 2.921048 3.204569
70.68974 355.1209 2.866268 3.258252
70.72132 355.0822 2.793329 3.253651
70.75185 355.0812 2.730677 3.305602
70.78301 355.0717 2.732721 3.290918
70.81635 355.1074 2.739731 3.324398
70.84808 355.107 2.758004 3.288043
70.88142 355.1807 2.811288 3.1696
70.91312 355.1015 2.859281 3.14066
70.94645 355.1194 2.879822 3.259664
70.97978 355.1902 2.940012 3.296835
71.01135 355.1756 2.808105 3.406918
71.04469 355.1073 2.706421 3.389302
71.07534 355.0419 2.572031 3.371657
71.10867 355.0124 2.565877 3.42608
71.14201 355.0367 2.628291 3.429109
71.17534 355.0459 2.713043 3.4763
71.20359 355.1218 2.724772 3.431023
71.23415 355.1584 2.687465 3.40713
71.26385 355.1916 2.636403 3.359698
71.29719 355.2265 2.645689 3.373432
71.33005 355.257 2.646546 3.4233
71.36275 355.2272 2.634176 3.430449
71.39297 355.1898 2.614985 3.452489
71.4239 355.1962 2.571588 3.444087
71.45723 355.2295 2.554577 3.405396
71.48832 355.2514 2.577194 3.381438
71.52142 355.2663 2.576485 3.437803
71.55434 355.3412 2.612475 3.429824
71.58768 355.2965 2.623605 3.406302
71.62102 355.3318 2.599512 3.336997
71.64949 355.3097 2.65861 3.164344
71.67963 355.2859 2.748727 3.259159
71.70894 355.3874 2.798644 3.290153
71.73989 355.4312 2.812681 3.314345
71.77322 355.3748 2.751023 3.373841
71.80656 355.3245 2.614098 3.347211
71.83846 355.2519 2.499635 3.398432
71.87018 355.2844 2.471952 3.38322
71.90351 355.2914 2.561997 3.3887
71.93685 355.3204 2.574894 3.416961
71.97018 355.3239 2.641017 3.364568
72.00352 355.4107 2.594079 3.315163
72.03685 355.5116 2.620104 3.28878
72.07018 355.5239 2.676741 3.276991
72.09918 355.4936 2.665946 3.352713
72.13044 355.4168 2.638867 3.32661
72.16079 355.4442 2.564304 3.385681
72.19102 355.5327 2.52345 3.394286
72.22435 355.5173 2.557567 3.411319
72.25768 355.5371 2.53102 3.417977
72.28707 355.545 2.490928 3.430609
72.31846 355.5697 2.480409 3.460948
72.35045 355.5595 2.441879 3.496044
72.38378 355.5311 2.451466 3.530157
72.41326 355.593 2.47398 3.43067
72.44659 355.6358 2.40235 3.577874
72.4775 355.7462 2.336987 3.610347
72.50846 355.7625 2.260443 3.669826
72.54179 355.7332 2.151562 3.794394
72.57513 355.7099 2.128397 3.726414
72.60842 355.5959 2.083517 3.79072
72.64175 355.5885 2.152786 3.721253
72.67183 355.545 2.167981 3.765785
72.70516 355.5481 2.224428 3.717472
72.73384 355.5895 2.221445 3.720102
72.76717 0 0 0
