時間[s] タイヤの舵角[deg]
0 0
0.02 -8.5
0.05333333 -8.5
0.08666666 -8.5
0.12 -8.5
0.1533333 -8.5
0.1866667 -8.5
0.2191223 -8.5
0.2524556 -8.5
0.2856957 -8.5
0.319029 -8.5
0.3492452 -8.5
0.3825786 -8.5
0.410293 -8.5
0.442809 -8.5
0.4717197 -8.5
0.5047125 -8.5
0.5342414 -8.5
0.5675748 -8.5
0.5962961 -8.5
0.6249631 -8.5
0.6549074 -8.5
0.6857338 -8.5
0.718083 -8.5
0.7494627 -8.5
0.7820006 -8.5
0.8126588 -8.5
0.8459921 -8.5
0.8746402 -8.7
0.9054261 -8.7
0.9339275 -9.15
0.9617546 -9.8
0.9929876 -9.8
1.023211 -10.25
1.054358 -10.25
1.082928 -10.7
1.115658 -10.7
1.145276 -10.7
1.176124 -10.7
1.202574 -10.7
1.231846 -10.7
1.260898 -10.7
1.291843 -10.7
1.323513 -10.7
1.352592 -10.7
1.381366 -10.25
1.413384 -9.8
1.441495 -9.8
1.474144 -9.6
1.507445 -9.6
1.540779 -9.6
1.572081 -9.6
1.601866 -9.6
1.629755 -9.6
1.659017 -9.6
1.688623 -9.6
1.721956 -9.6
1.755289 -9.6
1.785347 -9.6
1.812575 -9.6
1.841141 -9.6
1.873057 -9.6
1.900862 -9.6
1.933151 -9.6
1.963926 -9.6
1.99564 -9.6
2.028824 -9.6
2.061655 -9.6
2.090271 -9.6
2.118962 -9.6
2.151202 -9.6
2.178197 -9.6
2.21153 -9.6
2.241673 -9.6
2.271054 -9.6
2.304056 -9.6
2.333923 -9.6
2.362293 -9.6
2.394219 -9.6
2.424139 -9.6
2.455784 -9.6
2.484204 -9.6
2.517537 -9.6
2.546857 -9.6
2.578779 -9.6
2.609356 -9.6
2.638537 -9.6
2.666847 -9.6
2.696521 -9.6
2.724739 -9.6
2.755068 -9.6
2.782275 -9.6
2.812289 -9.6
2.845622 -9.6
2.87837 -9.6
2.906918 -9.6
2.939966 -9.6
2.973299 -9.6
3.00285 -9.6
3.031115 -9.6
3.059862 -9.6
3.087606 -9.6
3.116217 -9.6
3.143137 -9.6
3.17647 -9.6
3.206137 -9.6
3.237464 -9.6
3.269783 -9.6
3.303117 -9.6
3.332685 -9.6
3.365139 -9.6
3.398472 -9.6
3.428633 -9.6
3.461966 -9.6
3.495299 -9.6
3.527716 -9.6
3.559629 -9.6
3.592963 -9.6
3.625785 -9.6
3.658642 -8.95
3.688273 -8.05
3.721607 -8.05
3.751693 -7.85
3.781752 -7.85
3.815085 -7.85
3.847567 -7.85
3.877724 -7.85
3.905323 -7.85
3.933936 -7.85
3.964688 -7.85
3.996568 -7.85
4.025544 -7.85
4.058877 -7.85
4.086518 -7.85
4.118748 -7.85
4.147183 -7.85
4.176264 -7.85
4.205125 -7.85
4.238459 -7.85
4.267325 -7.85
4.300658 -7.6
4.331257 -7.6
4.359523 -7.6
4.387728 -7.6
4.419981 -7.6
4.450058 -7.6
4.483391 -7.6
4.515578 -7.6
4.548782 -7.6
4.576032 -7.6
4.606367 -7.6
4.634826 -7.6
4.668159 -7.6
4.700325 -7.6
4.733098 -7.6
4.764396 -7.6
4.797729 -7.6
4.831063 -7.6
4.862542 -7.6
4.889332 -7.6
4.920494 -7.6
4.952604 -7.6
4.981461 -7.6
5.014794 -7.6
5.048128 -7.6
5.081461 -7.6
5.114794 -7.6
5.145841 -7.6
5.175385 -7.6
5.205062 -7.6
5.234948 -7.6
5.267015 -7.6
5.296697 -7.6
5.327415 -7.6
5.360749 -7.6
5.388801 -7.6
5.419048 -7.6
5.447092 -7.6
5.478724 -7.6
5.506419 -7.6
5.539752 -7.6
5.569881 -7.6
5.600429 -7.6
5.632962 -7.6
5.665375 -7.6
5.693335 -7.6
5.722221 -7.6
5.75094 -7.6
5.781319 -7.6
5.807971 -7.6
5.838347 -7.6
5.866709 -7.6
5.896723 -7.6
5.923864 -7.6
5.957197 -7.6
5.98698 -7.6
6.020314 -7.6
6.051954 -7.6
6.084129 -7.6
6.115212 -7.6
6.147279 -7.6
6.177577 -7.6
6.210911 -7.6
6.244244 -7.6
6.274565 -7.6
6.307898 -7.6
6.341231 -7.6
6.374565 -7.6
6.407898 -7.6
6.437181 -7.6
6.466323 -7.6
6.499657 -7.6
6.530515 -7.6
6.557934 -7.6
6.58546 -7.6
6.612342 -7.6
6.644307 -7.6
6.67764 -7.6
6.706776 -7.6
6.734174 -7.6
6.767508 -7.6
6.794857 -7.6
6.82819 -7.6
6.859416 -7.6
6.889292 -7.6
6.920825 -7.6
6.95139 -7.6
6.984724 -7.6
7.015924 -7.6
7.049257 -7.6
7.082591 -7.6
7.111488 -7.6
7.144822 -7.6
7.171689 -7.6
7.202036 -7.6
7.232372 -7.6
7.262329 -7.6
7.295662 -7.6
7.328995 -7.6
7.359964 -7.6
7.393135 -7.6
7.424302 -7.6
7.457635 -7.6
7.485086 -7.6
7.518419 -7.6
7.551604 -7.6
7.580958 -7.6
7.614291 -7.6
7.647624 -7.6
7.676298 -7.6
7.708007 -7.6
7.74134 -7.6
7.774673 -7.6
7.804171 -7.6
7.83304 -7.6
7.862084 -7.6
7.890907 -7.6
7.924241 -7.6
7.954106 -7.6
7.98744 -7.6
8.019939 -7.6
8.051275 -7.6
8.084609 -7.6
8.115297 -7.6
8.145869 -7.6
8.173524 -7.6
8.204258 -7.6
8.237591 -7.6
8.270925 -7.6
8.298343 -7.6
8.331676 -7.6
8.360418 -7.6
8.393751 -7.6
8.421669 -7.6
8.453413 -7.6
8.480331 -7.6
8.51089 -7.6
8.544224 -7.6
8.577557 -7.6
8.606634 -7.6
8.637712 -7.6
8.667528 -7.6
8.700862 -7.6
8.731858 -7.6
8.764618 -7.6
8.797414 -7.6
8.82653 -7.6
8.859862 -7.6
8.891659 -7.6
8.920653 -7.6
8.953444 -7.6
8.983051 -7.6
9.016384 -7.6
9.048802 -7.6
9.077169 -7.6
9.1056 -7.6
9.137342 -7.6
9.170675 -7.6
9.20224 -7.6
9.235574 -7.6
9.268907 -7.6
9.297138 -7.6
9.330472 -7.6
9.361878 -7.6
9.391625 -7.6
9.419889 -7.6
9.449315 -7.6
9.482649 -7.6
9.51247 -7.6
9.545803 -7.6
9.57354 -7.6
9.605118 -7.6
9.638452 -7.6
9.667019 -7.6
9.695995 -7.6
9.723043 -7.6
9.754005 -7.6
9.787338 -7.6
9.820672 -7.6
9.847863 -7.6
9.875757 -7.6
9.909091 -7.6
9.942424 -7.6
9.975403 -7.6
10.0081 -7.6
10.0387 -7.6
10.07204 -7.6
10.10537 -7.6
10.13576 -7.6
10.16726 -7.6
10.19966 -7.6
10.23159 -7.6
10.26492 -7.6
10.29519 -7.6
10.32852 -7.6
10.35623 -7.6
10.38574 -7.6
10.41887 -7.6
10.4475 -7.6
10.47615 -7.6
10.50491 -7.6
10.53341 -7.6
10.56332 -7.6
10.59666 -7.6
10.62999 -7.6
10.66133 -7.6
10.69166 -7.6
10.72195 -7.6
10.75528 -7.6
10.78473 -7.6
10.81339 -7.6
10.84328 -7.6
10.87579 -7.6
10.90912 -7.6
10.93784 -7.6
10.96461 -7.6
10.99232 -7.6
11.02029 -7.6
11.05362 -7.6
11.08536 -7.6
11.11384 -7.6
11.14171 -7.6
11.17003 -7.6
11.20168 -7.6
11.23244 -7.6
11.26577 -7.6
11.29569 -7.6
11.32809 -7.6
11.36045 -7.6
11.39379 -7.6
11.42712 -7.6
11.4549 -7.6
11.48387 -7.6
11.51083 -7.6
11.54086 -7.6
11.56856 -7.6
11.60189 -7.6
11.63522 -7.6
11.6651 -7.6
11.69844 -7.6
11.72672 -7.6
11.76005 -7.6
11.79338 -7.6
11.82274 -7.6
11.85608 -7.6
11.88714 -7.6
11.92048 -7.6
11.95381 -7.6
11.98283 -7.6
12.00976 -7.6
12.04309 -7.6
12.07643 -7.6
12.10976 -7.6
12.13716 -7.6
12.1705 -7.6
12.19792 -7.6
12.23126 -7.6
12.26234 -7.6
12.29259 -7.6
12.32009 -7.6
12.35342 -7.6
12.38676 -7.6
12.41718 -7.6
12.44678 -7.6
12.47968 -7.6
12.50892 -7.6
12.54225 -7.6
12.57073 -7.6
12.60091 -7.6
12.63424 -7.6
12.66301 -7.6
12.69635 -7.6
12.72968 -7.6
12.75985 -7.6
12.79319 -7.6
12.82305 -7.6
12.85638 -7.6
12.88971 -7.6
12.919 -7.6
12.95195 -7.6
12.98323 -7.6
13.01656 -7.6
13.0452 -7.6
13.07658 -7.6
13.10839 -7.6
13.1393 -7.6
13.17263 -7.6
13.20115 -7.6
13.23448 -7.6
13.26348 -7.6
13.29425 -7.6
13.32758 -7.6
13.35765 -7.6
13.38841 -7.6
13.41974 -7.6
13.44921 -7.6
13.48254 -7.6
13.51467 -7.6
13.54481 -7.6
13.57315 -7.6
13.60648 -7.6
13.63982 -7.6
13.67315 -7.6
13.7017 -7.6
13.72939 -7.6
13.75685 -7.6
13.79018 -7.6
13.81736 -7.6
13.84908 -7.6
13.87919 -7.6
13.91252 -7.6
13.94586 -7.6
13.97919 -7.6
14.01252 -7.6
14.04374 -7.6
14.07435 -7.6
14.10768 -7.6
14.13558 -7.6
14.16891 -7.6
14.2016 -7.6
14.23285 -7.6
14.26615 -7.6
14.29948 -7.6
14.33105 -7.6
14.3611 -7.6
14.38983 -7.6
14.42316 -7.6
14.45584 -7.6
14.48558 -7.6
14.51519 -7.6
14.54852 -7.6
14.58186 -7.6
14.60972 -7.6
14.63687 -7.6
14.66792 -7.6
14.69962 -7.6
14.73295 -7.6
14.7594 -7.6
14.78701 -7.6
14.81465 -7.6
14.84424 -7.6
14.87757 -7.6
14.90738 -7.6
14.94072 -7.6
14.96801 -7.6
15.0004 -7.6
15.03373 -7.6
15.06297 -7.6
15.09631 -7.6
15.12729 -7.6
15.15624 -7.6
15.18845 -7.6
15.2179 -7.6
15.25009 -7.6
15.27956 -7.6
15.31052 -7.6
15.34386 -7.6
15.37328 -7.6
15.40262 -7.6
15.4339 -7.6
15.46724 -7.6
15.50057 -7.6
15.53082 -7.6
15.55864 -7.6
15.59198 -7.6
15.62531 -7.6
15.65864 -7.6
15.68778 -7.6
15.71883 -7.6
15.74809 -7.6
15.78019 -7.6
15.81352 -7.6
15.84579 -7.6
15.87556 -7.6
15.90664 -7.6
15.93998 -7.6
15.97331 -7.6
16.00351 -7.6
16.03423 -7.6
16.06266 -7.6
16.09599 -7.6
16.12932 -7.6
16.16033 -7.6
16.18901 -7.6
16.2183 -7.6
16.24925 -7.6
16.28258 -7.6
16.31073 -7.6
16.33949 -7.6
16.36853 -7.6
16.40187 -7.6
16.4352 -7.6
16.46377 -7.6
16.49425 -7.6
16.52758 -7.6
16.55548 -7.6
16.58881 -7.6
16.61641 -7.6
16.64974 -7.6
16.67669 -7.6
16.70524 -7.6
16.73858 -7.6
16.77191 -7.6
16.79958 -7.6
16.82973 -7.6
16.86307 -7.6
16.8964 -7.6
16.92973 -7.6
16.96034 -7.6
16.99045 -7.6
17.02275 -7.6
17.05608 -7.6
17.08739 -7.6
17.11773 -7.6
17.14598 -7.6
17.17912 -7.6
17.21245 -7.6
17.24067 -7.6
17.27054 -7.6
17.3029 -7.6
17.3349 -7.6
17.36823 -7.6
17.40149 -7.6
17.43288 -7.6
17.46621 -7.6
17.49587 -7.6
17.52921 -7.6
17.55772 -7.6
17.59105 -7.6
17.6197 -7.6
17.6503 -7.6
17.68363 -7.6
17.71214 -7.6
17.74472 -7.6
17.77532 -7.6
17.80629 -7.6
17.83962 -7.6
17.87147 -7.6
17.90318 -7.6
17.93217 -7.6
17.96222 -7.6
17.99556 -7.6
18.02804 -7.6
18.0562 -7.6
18.08954 -7.4
18.12287 -7.4
18.1562 -7.4
18.18453 -7.2
18.21786 -7.2
18.2447 -7.2
18.27357 -7.2
18.3069 -7.2
18.33884 -7.2
18.36698 -7.2
18.39849 -7.2
18.42862 -7.2
18.46195 -7.2
18.49006 -7.2
18.52312 -7.2
18.55243 -7.2
18.58226 -7.2
18.61559 -7.2
18.64746 -7.2
18.67797 -7.2
18.70785 -7.2
18.73938 -7.2
18.77272 -7.2
18.80089 -7.2
18.8302 -7.2
18.86353 -7.2
18.89626 -7.2
18.9296 -7.2
18.96071 -7.2
18.98684 -7.2
19.01876 -7.2
19.0521 -7.2
19.08543 -7.2
19.11513 -7.2
19.14399 -7.2
19.17732 -7.2
19.20674 -7.2
19.24007 -7.2
19.27051 -7.2
19.29919 -7.2
19.32856 -7.2
19.36025 -7.2
19.39359 -7.2
19.42536 -7.2
19.45788 -7.2
19.48666 -7.2
19.51561 -7.2
19.54895 -7.2
19.57959 -7.2
19.61214 -7.2
19.64389 -7.2
19.67516 -7.2
19.70849 -7.2
19.74165 -7.2
19.7702 -7.2
19.80353 -7.2
19.83434 -7.2
19.86767 -7.2
19.89763 -7.2
19.92743 -7.2
19.95686 -7.2
19.98495 -7.2
20.01829 -7.2
20.04711 -7.2
20.07666 -7.2
20.10978 -7.2
20.14311 -7.2
20.17645 -7.2
20.2063 -7.2
20.23668 -7.2
20.26748 -7.2
20.29574 -7.2
20.32907 -7.2
20.36121 -7.2
20.39155 -7.2
20.41998 -7.2
20.45332 -7.2
20.48665 -7.2
20.51627 -7.2
20.54384 -7.2
20.57396 -7.2
20.60166 -7.2
20.63499 -7.2
20.66833 -7.2
20.70113 -7.2
20.72975 -7.2
20.75913 -7.2
20.78572 -7.2
20.81906 -7.2
20.84897 -7.2
20.88123 -7.2
20.90897 -7.2
20.93724 -7.2
20.97057 -7.2
20.99869 -7.2
21.02724 -7.2
21.05547 -7.2
21.08327 -7.2
21.11661 -7.2
21.14579 -7.2
21.17912 -7.2
21.20708 -7.2
21.2395 -7.2
21.27283 -7.2
21.30232 -7.2
21.33249 -7.2
21.3612 -7.2
21.3941 -7.2
21.42743 -7.2
21.45482 -7.2
21.4852 -7.2
21.51195 -7.2
21.54243 -7.2
21.57576 -7.2
21.60846 -7.2
21.63698 -7.2
21.66954 -7.2
21.69662 -7.2
21.72995 -7.2
21.75825 -7.2
21.78753 -7.2
21.81638 -7.2
21.84972 -7.2
21.88305 -7.2
21.91422 -7.2
21.9442 -7.2
21.97686 -7.2
22.0069 -7.2
22.04024 -7.2
22.069 -7.2
22.10089 -7.2
22.13013 -7.2
22.16131 -7.2
22.19464 -7.2
22.22797 -7.2
22.25539 -7.2
22.28406 -7.2
22.31373 -7.2
22.34706 -7.2
22.3789 -7.2
22.4103 -7.2
22.44363 -7.2
22.47697 -7.2
22.5103 -7.2
22.54363 -7.2
22.57697 -7.2
22.60624 -7.2
22.63461 -7.2
22.66794 -7.2
22.69512 -7.2
22.72777 -7.2
22.75736 -7.2
22.79069 -7.2
22.82402 -7.2
22.85421 -7.2
22.88279 -7.2
22.91194 -7.2
22.94274 -7.2
22.97608 -7.2
23.00941 -7.2
23.04273 -7.2
23.07025 -7.2
23.1006 -7.2
23.13393 -7.2
23.16174 -7.2
23.1891 -7.2
23.22124 -7.2
23.25237 -7.2
23.2857 -7.2
23.31252 -7.2
23.33963 -7.2
23.37111 -7.2
23.40444 -7.2
23.43777 -7.2
23.4676 -7.2
23.49608 -7.2
23.52439 -7.2
23.55427 -7.2
23.5876 -7.2
23.61566 -7.2
23.64583 -7.2
23.67464 -7.2
23.70797 -7.2
23.7413 -7.2
23.77024 -7.2
23.80254 -7.2
23.83473 -7.2
23.86685 -7.2
23.90018 -7.2
23.93351 -7.2
23.96685 -7.2
23.99596 -7.2
24.02586 -7.2
24.05919 -7.2
24.08726 -7.2
24.12059 -7.2
24.15018 -7.2
24.17976 -7.2
24.21309 -7.2
24.23961 -7.2
24.26852 -7.2
24.2965 -7.2
24.32563 -7.2
24.35814 -7.2
24.39148 -7.2
24.41987 -7.2
24.45321 -7.2
24.48143 -7.2
24.51281 -7.2
24.54614 -7.2
24.57947 -7.2
24.61009 -7.2
24.63849 -7.2
24.66605 -7.2
24.69938 -7.2
24.73272 -7.2
24.76605 -7.2
24.79675 -7.2
24.82831 -7.2
24.8606 -7.2
24.88944 -7.2
24.91809 -7.2
24.94535 -7.2
24.97162 -7.2
25.00496 -7.2
25.03829 -7.2
25.06749 -7.2
25.09669 -7.2
25.12547 -7.2
25.15286 -7.2
25.18352 -7.2
25.21657 -7.2
25.24378 -7.2
25.27649 -7.2
25.30497 -7.2
25.33088 -7.2
25.35849 -7.2
25.39182 -7.2
25.41908 -7.2
25.44701 -7.2
25.48034 -7.2
25.50813 -7.2
25.54146 -7.2
25.5748 -7.2
25.60413 -7.2
25.6314 -7.2
25.65988 -7.2
25.69321 -7.2
25.72472 -7.2
25.75806 -7.2
25.78854 -7.2
25.82089 -7.2
25.85423 -7.2
25.88628 -7.2
25.91681 -7.2
25.94556 -7.2
25.9789 -7.2
26.01223 -7.2
26.04556 -7.2
26.07392 -7.2
26.10188 -7.2
26.1298 -7.2
26.16313 -7.2
26.19431 -7.2
26.22527 -7.2
26.25602 -7.2
26.28936 -7.2
26.32269 -7.2
26.35173 -7.2
26.38157 -7.2
26.4103 -7.2
26.44097 -7.2
26.4743 -7.2
26.50278 -7.2
26.53173 -7.2
26.56046 -7.2
26.59379 -7.2
26.62712 -7.2
26.66046 -7.2
26.68844 -7.2
26.71901 -7.2
26.75235 -7.2
26.78568 -7.2
26.818 -7.2
26.84936 -7.2
26.87827 -7.2
26.9116 -7.2
26.94493 -7.2
26.97429 -7.2
27.00357 -7.2
27.03418 -7.2
27.06372 -7.2
27.09706 -7.2
27.1259 -7.2
27.15867 -7.2
27.19098 -7.2
27.21975 -7.2
27.25308 -7.2
27.28641 -7.2
27.31655 -7.2
27.3455 -7.2
27.37379 -7.2
27.40712 -7.2
27.44009 -7.2
27.47291 -7.2
27.50433 -7.2
27.53633 -7.2
27.56966 -7.2
27.59862 -7.2
27.62694 -7.2
27.65948 -7.2
27.69282 -7.2
27.72615 -7.2
27.75446 -7.2
27.78577 -7.2
27.8138 -7.2
27.84714 -7.2
27.88047 -7.2
27.91313 -7.2
27.94646 -7.2
27.97591 -7.2
28.00709 -7.2
28.04042 -7.2
28.06802 -7.2
28.10108 -7.2
28.13102 -7.2
28.16087 -7.2
28.1942 -7.2
28.22753 -7.2
28.2552 -7.2
28.28566 -7.2
28.31565 -7.2
28.34898 -7.2
28.37953 -7.2
28.40856 -7.2
28.4419 -6.95
28.47228 -6.95
28.50561 -6.75
28.53861 -6.75
28.56655 -6.75
28.59513 -6.75
28.62405 -6.75
28.65738 -6.75
28.68684 -6.75
28.71525 -6.75
28.74601 -6.75
28.77494 -6.75
28.80817 -6.75
28.84057 -6.75
28.86794 -6.75
28.89852 -6.75
28.92636 -6.75
28.9597 -6.75
28.98732 -6.75
29.01789 -6.75
29.05122 -6.75
29.08047 -6.75
29.11381 -6.75
29.14679 -6.75
29.17464 -6.75
29.20797 -6.75
29.24131 -6.75
29.27464 -6.75
29.30772 -6.75
29.34106 -6.75
29.37341 -6.75
29.40523 -6.75
29.43765 -6.75
29.46895 -6.75
29.49596 -6.75
29.5239 -6.75
29.55625 -6.75
29.58959 -6.75
29.61801 -6.75
29.64736 -6.75
29.68015 -6.75
29.70887 -6.75
29.7422 -6.75
29.77489 -6.75
29.80599 -6.75
29.83507 -6.75
29.8684 -6.75
29.90174 -6.75
29.93507 -6.75
29.9684 -6.75
29.99604 -6.75
30.02528 -6.75
30.05861 -6.75
30.08825 -6.75
30.11473 -6.95
30.14702 -6.95
30.17474 -6.95
30.20808 -6.95
30.23693 -6.95
30.27026 -6.95
30.30048 -6.95
30.33149 -6.95
30.36482 -6.95
30.39363 -6.95
30.42673 -6.95
30.45658 -6.95
30.48453 -6.95
30.51786 -6.95
30.55017 -6.95
30.58277 -6.95
30.6124 -6.95
30.64573 -6.95
30.67907 -6.95
30.70982 -6.95
30.73815 -6.95
30.76645 -6.95
30.79945 -6.95
30.83278 -6.95
30.86283 -6.95
30.89617 -6.95
30.9289 -6.95
30.96223 -6.95
30.99557 -6.95
31.02766 -6.95
31.05755 -6.95
31.08722 -6.95
31.11716 -6.95
31.1505 -6.95
31.17759 -6.95
31.20638 -6.95
31.23803 -6.75
31.27137 -6.75
31.3047 -6.75
31.33503 -6.75
31.36287 -6.55
31.39323 -6.55
31.42517 -6.1
31.4585 -5.85
31.48748 -5.85
31.51744 -5.45
31.54916 -5.45
31.58249 -5.2
31.61582 -5.2
31.6462 -5.2
31.67462 -5.2
31.70448 -5.2
31.73596 -5.2
31.76929 -5.2
31.80262 -5.2
31.83596 -5.2
31.86608 -5.2
31.8984 -5.2
31.93173 -5.2
31.96116 -5.2
31.99449 -5.2
32.02413 -5.2
32.05746 -5.2
32.0908 -5.2
32.11808 -5.2
32.1467 -5.2
32.18003 -5.2
32.21337 -5.2
32.2467 -5.2
32.27977 -5.2
32.30832 -5.2
32.34042 -5.2
32.36851 -5.2
32.40184 -5.2
32.43034 -5
32.46013 -5
32.4903 -4.35
32.52363 -3.7
32.55696 -3.7
32.59029 -3.25
32.61811 -3.05
32.64637 -3.05
32.67447 -3.05
32.7078 -3.05
32.73733 -3.05
32.76627 -3.05
32.79669 -3.05
32.82997 -3.05
32.8633 -3.05
32.89342 -3.05
32.92676 -3.05
32.95861 -3.05
32.98742 -3.05
33.02075 -3.05
33.04926 -3.05
33.0807 -3.05
33.11265 -3.05
33.14183 -3.05
33.17517 -3.05
33.2085 -3.05
33.23941 -3.05
33.27074 -3.05
33.29836 -3.05
33.3317 -3.05
33.35935 -3.05
33.39268 -3.05
33.4222 -3.05
33.4524 -3.05
33.48574 -3.05
33.51907 -3.05
33.55125 -3.05
33.58357 -3.05
33.61139 -3.05
33.64473 -3.05
33.67806 -3.05
33.70782 -3.05
33.73824 -3.05
33.76714 -3.05
33.80047 -3.05
33.82962 -3.05
33.86014 -3.05
33.89273 -3.05
33.92251 -3.05
33.95584 -3.05
33.98917 -3.05
34.01825 -3.05
34.04599 -3.05
34.07547 -3.05
34.10881 -3.05
34.13793 -3.05
34.16559 -3.05
34.19448 -3.05
34.22695 -3.05
34.26028 -3.05
34.29361 -3.05
34.3225 -3.05
34.35536 -3.05
34.38766 -3.05
34.42099 -3.05
34.45433 -3.05
34.48766 -3.05
34.52088 -3.05
34.55243 -3.05
34.58577 -3.05
34.61884 -3.05
34.64875 -3.05
34.67712 -3.05
34.71039 -3.05
34.74372 -3.05
34.77285 -3.05
34.80545 -3.05
34.8342 -3.05
34.86753 -3.05
34.90087 -3.05
34.92819 -3.05
34.95865 -3.05
34.98957 -3.05
35.0229 -3.05
35.05624 -3.05
35.08957 -3.05
35.1229 -3.05
35.15175 -3.05
35.18054 -3.05
35.21387 -3.05
35.24313 -3.05
35.27295 -3.05
35.30117 -3.05
35.33192 -3.05
35.36525 -3.05
35.39808 -3.05
35.42995 -3.05
35.462 -3.05
35.49369 -3.05
35.52702 -3.05
35.55485 -3.05
35.58677 -3.05
35.61649 -3.05
35.6452 -3.05
35.67853 -3.05
35.71186 -3.05
35.74028 -3.05
35.76857 -3.05
35.79684 -3.05
35.83018 -3.05
35.86037 -3.05
35.88927 -3.05
35.91845 -3.05
35.95178 -3.05
35.98512 -3.05
36.01736 -3.05
36.0507 -3.05
36.08403 -3.05
36.11491 -3.05
36.14824 -3.05
36.18157 -3.05
36.21106 -3.05
36.24134 -3.05
36.27467 -3.05
36.30801 -3.05
36.3379 -3.05
36.367 -3.05
36.39861 -3.05
36.43004 -3.05
36.46338 -3.05
36.49463 -3.05
36.52761 -3.05
36.55552 -3.05
36.58595 -3.05
36.61928 -3.05
36.65119 -3.05
36.67943 -3.05
36.70886 -3.05
36.74131 -3.05
36.77464 -3.05
36.80334 -3.05
36.83327 -3.05
36.86174 -3.05
36.89507 -3.05
36.92841 -3.05
36.95742 -3.05
36.99043 -3.05
37.01984 -3.05
37.0504 -3.05
37.08374 -3.05
37.11404 -3.05
37.1466 -3.05
37.17402 -3.05
37.20288 -3.05
37.23621 -3.05
37.26954 -3.05
37.29936 -3.05
37.33269 -3.05
37.36221 -3.05
37.39555 -3.05
37.42697 -3.05
37.45591 -3.05
37.48414 -3.05
37.51249 -3.05
37.54582 -3.05
37.57915 -3.05
37.61249 -3.05
37.64099 -3.05
37.67432 -3.05
37.70766 -3.05
37.73973 -3.05
37.76899 -3.05
37.79923 -3.05
37.83257 -3.05
37.8659 -3.05
37.89434 -3.05
37.92277 -3.05
37.9525 -3.05
37.98005 -3.05
38.01031 -3.05
38.04364 -3.05
38.07444 -3.05
38.10769 -3.05
38.1378 -3.05
38.16745 -3.05
38.20078 -3.05
38.22981 -3.05
38.25922 -3.05
38.28983 -3.05
38.32317 -3.05
38.3565 -3.05
38.38983 -3.05
38.41742 -3.05
38.44922 -3.05
38.47734 -3.05
38.51067 -3.05
38.53867 -3.05
38.56784 -3.05
38.59917 -3.05
38.6325 -3.05
38.66584 -3.05
38.69573 -3.05
38.72444 -3.05
38.75573 -3.05
38.78392 -3.05
38.81726 -3.05
38.84874 -3.05
38.8776 -3.05
38.90652 -3.05
38.93889 -3.05
38.97223 -3.05
39.00304 -3.05
39.03077 -3.05
39.06197 -3.05
39.09243 -3.05
39.12576 -3.05
39.15717 -3.05
39.18774 -3.05
39.21666 -3.05
39.24818 -3.05
39.28151 -3.05
39.31214 -3.05
39.34547 -3.05
39.37333 -3.05
39.40157 -3.05
39.43491 -3.05
39.46309 -3.05
39.49572 -3.05
39.52451 -3.05
39.5532 -3.05
39.58653 -3.05
39.61955 -3.05
39.64789 -3.05
39.67916 -3.05
39.70659 -3.05
39.73993 -3.05
39.77326 -3.05
39.80341 -3.05
39.83109 -3.05
39.8624 -3.05
39.89573 -3.05
39.92907 -3.05
39.96115 -3.05
39.98965 -3.05
40.01858 -3.05
40.05191 -3.05
40.07909 -3.05
40.11137 -3.05
40.13966 -3.05
40.17044 -3.05
40.20377 -3.05
40.2328 -3.05
40.26613 -3.05
40.29723 -3.05
40.32712 -3.05
40.36045 -3.05
40.38869 -3.05
40.42096 -3.05
40.45023 -3.05
40.48264 -3.05
40.51598 -3.05
40.54931 -3.05
40.57767 -3.05
40.608 -3.05
40.63644 -3.05
40.66977 -3.05
40.70041 -3.05
40.72841 -3.05
40.75906 -3.05
40.7924 -3.05
40.82573 -3.05
40.85906 -3.05
40.88948 -3.05
40.91861 -3.05
40.95106 -3.05
40.98439 -3.05
41.01228 -3.05
41.04561 -3.05
41.07472 -3.05
41.10484 -3.05
41.13817 -3.05
41.16611 -3.05
41.19349 -3.05
41.22198 -3.05
41.25532 -3.05
41.28865 -3.05
41.32198 -3.05
41.35105 -3.05
41.37976 -3.05
41.40907 -3.05
41.4424 -3.05
41.47255 -3.05
41.50406 -3.05
41.53271 -3.05
41.56266 -3.05
41.59599 -3.05
41.62933 -3.05
41.65888 -3.05
41.68639 -3.05
41.71493 -3.05
41.74826 -3.05
41.78156 -3.05
41.81213 -3.05
41.84096 -3.05
41.87216 -3.05
41.90549 -3.05
41.935 -3.05
41.96449 -3.05
41.99448 -3.05
42.02451 -3.05
42.05784 -3.05
42.08935 -3.05
42.11775 -3.05
42.15108 -3.05
42.17985 -3.05
42.21318 -3.05
42.24204 -3.05
42.27525 -3.05
42.30374 -3.05
42.33423 -3.05
42.36757 -3.05
42.4009 -3.05
42.43126 -3.05
42.46426 -3.05
42.49482 -3.05
42.52815 -3.05
42.55652 -3.05
42.58513 -3.05
42.61635 -3.05
42.64528 -3.05
42.67861 -3.05
42.70708 -3.05
42.73512 -2.6
42.76495 -2.6
42.79828 -1.7
42.83162 -1.3
42.86361 -1.3
42.89694 -1.3
42.93011 -1.3
42.95949 -1.3
42.99282 -1.5
43.02308 -1.7
43.05096 -1.7
43.08073 -1.95
43.11406 -1.95
43.1474 -2.15
43.17629 -2.6
43.20963 -2.6
43.2381 -3.25
43.26615 -3.45
43.29948 -3.45
43.32768 -3.45
43.3554 -3.45
43.38581 -3.45
43.41584 -3.45
43.44918 -3.45
43.48223 -3.45
43.51124 -2.8
43.54199 -2.8
43.57205 -2.4
43.60538 -2.4
43.63414 -2.15
43.66747 -2.15
43.69782 -2.15
43.73116 -2.15
43.76449 -2.15
43.79782 -2.15
43.82713 -2.15
43.85601 -2.15
43.88655 -2.15
43.91989 -2.15
43.9511 -2.15
43.98443 -2.15
44.01594 -2.15
44.0445 -2.15
44.07784 -2.15
44.10601 -2.15
44.13495 -2.15
44.16828 -2.15
44.19701 -2.15
44.23034 -2.15
44.26327 -2.15
44.29131 -2.15
44.31996 -2.15
44.34742 -2.15
44.38075 -2.15
44.41004 -2.15
44.43961 -2.15
44.47066 -2.15
44.504 -2.15
44.53733 -2.15
44.56968 -2.15
44.60302 -2.15
44.63443 -2.15
44.66365 -2.15
44.69698 -2.15
44.73032 -2.15
44.75929 -2.15
44.78783 -2.15
44.81704 -2.15
44.85037 -2.15
44.88061 -2.15
44.91121 -2.15
44.94356 -2.15
44.9712 -2.15
45.00453 -2.15
45.03348 -2.15
45.06681 -2.15
45.10014 -2.15
45.12966 -2.15
45.16299 -2.15
45.19256 -2.15
45.22477 -2.15
45.2581 -2.15
45.28753 -2.15
45.32087 -2.15
45.34933 -2.15
45.37947 -2.15
45.41094 -2.15
45.44427 -2.15
45.4776 -2.15
45.50682 -2.15
45.53988 -2.15
45.56877 -2.15
45.59726 -2.15
45.63059 -2.15
45.65995 -2.15
45.68916 -2.15
45.71675 -2.15
45.74779 -2.15
45.78113 -2.15
45.81194 -2.15
45.84021 -2.15
45.86904 -2.15
45.89745 -2.15
45.93079 -2.15
45.95873 -2.15
45.9878 -2.15
46.01984 -2.15
46.05317 -2.15
46.08651 -2.15
46.11725 -2.15
46.14631 -2.15
46.17769 -2.15
46.20838 -2.15
46.24171 -2.15
46.27172 -2.15
46.30163 -2.15
46.33496 -2.15
46.36463 -2.15
46.39796 -2.15
46.42702 -2.15
46.45502 -2.15
46.4864 -2.15
46.51677 -2.15
46.5501 -2.15
46.58343 -2.15
46.61196 -2.15
46.64035 -2.15
46.67083 -2.15
46.70416 -2.15
46.73603 -2.15
46.76527 -2.15
46.7942 -2.15
46.82754 -2.15
46.86087 -2.15
46.89401 -2.15
46.92249 -2.15
46.95053 -2.15
46.97923 -2.15
47.01257 -2.15
47.04498 -2.15
47.07776 -2.15
47.10825 -2.15
47.13651 -2.15
47.16985 -2.15
47.19738 -2.15
47.23072 -2.15
47.25883 -2.15
47.2897 -2.15
47.32304 -2.15
47.35176 -2.15
47.37967 -2.15
47.4115 -2.15
47.44476 -2.15
47.47809 -2.15
47.50581 -2.15
47.53504 -2.15
47.56244 -2.15
47.59114 -2.15
47.62024 -2.15
47.65358 -2.15
47.6825 -2.15
47.71584 -2.15
47.74363 -2.15
47.77275 -2.15
47.80608 -2.15
47.83672 -2.15
47.86771 -2.15
47.89756 -2.15
47.92845 -2.15
47.96178 -2.15
47.99195 -2.15
48.02529 -2.15
48.05534 -2.15
48.08598 -2.15
48.11932 -2.15
48.14859 -2.15
48.17606 -2.15
48.20518 -2.15
48.23817 -2.15
48.2715 -2.15
48.30078 -2.15
48.33026 -2.15
48.36095 -2.15
48.39428 -2.15
48.42762 -2.15
48.46095 -2.15
48.48837 -2.15
48.51767 -2.15
48.55076 -2.15
48.58409 -2.15
48.61286 -2.15
48.64304 -2.15
48.67534 -2.15
48.70646 -2.15
48.73979 -2.15
48.76793 -2.15
48.79771 -2.15
48.82935 -2.15
48.86162 -2.15
48.89495 -2.15
48.92829 -2.15
48.96162 -2.15
48.99118 -2.15
49.02079 -2.15
49.05412 -2.15
49.08293 -2.15
49.1109 -2.15
49.14204 -2.15
49.17028 -2.15
49.20361 -2.15
49.23694 -2.15
49.26651 -2.15
49.29772 -2.15
49.32963 -2.15
49.36296 -2.15
49.39331 -2.15
49.42403 -2.15
49.45139 -2.15
49.48384 -2.15
49.51718 -2.15
49.54777 -2.15
49.57625 -2.15
49.60958 -2.15
49.64292 -2.15
49.67625 -2.15
49.70573 -2.15
49.73347 -2.15
49.76431 -2.15
49.79765 -2.15
49.83098 -2.15
49.85877 -2.15
49.89034 -2.15
49.91813 -2.15
49.95146 -2.15
49.98479 -2.15
50.01243 -2.15
50.03988 -2.15
50.06882 -2.15
50.10216 -2.15
50.13185 -2.15
50.16485 -2.15
50.19691 -2.15
50.22623 -2.15
50.25957 -2.15
50.287 -2.15
50.31539 -2.15
50.34365 -2.15
50.37364 -2.15
50.40698 -2.15
50.43845 -2.15
50.46886 -2.15
50.49726 -2.15
50.52843 -2.15
50.56176 -2.15
50.58958 -2.15
50.62289 -2.15
50.65027 -2.15
50.68063 -2.15
50.71396 -2.15
50.74368 -2.15
50.77118 -2.15
50.80119 -2.15
50.83453 -2.15
50.86786 -2.15
50.8995 -2.15
50.92987 -2.15
50.95979 -2.15
50.99312 -2.15
51.02645 -2.15
51.05655 -2.15
51.08656 -2.15
51.11989 -2.15
51.14797 -2.15
51.1813 -2.15
51.21356 -2.15
51.24278 -2.15
51.27177 -2.15
51.30264 -2.15
51.33597 -2.15
51.3693 -2.15
51.40218 -2.15
51.43103 -2.15
51.45883 -2.15
51.49216 -2.15
51.52174 -2.15
51.55252 -2.15
51.58108 -2.15
51.61227 -2.15
51.64561 -2.15
51.67767 -2.15
51.7059 -2.15
51.73573 -2.15
51.76561 -2.15
51.79895 -2.15
51.83228 -2.15
51.86561 -2.15
51.89405 -2.15
51.92275 -2.15
51.95609 -2.15
51.98624 -2.15
52.01408 -2.15
52.04196 -2.15
52.06967 -2.15
52.103 -2.15
52.13122 -2.15
52.16406 -2.15
52.19485 -2.15
52.22352 -2.15
52.25686 -2.15
52.28923 -2.15
52.31725 -2.15
52.34645 -2.15
52.37706 -2.15
52.4104 -2.15
52.44229 -2.15
52.47357 -2.15
52.50328 -2.15
52.53239 -2.15
52.56572 -2.15
52.59415 -2.15
52.62433 -2.15
52.65303 -2.15
52.68636 -2.15
52.7197 -2.15
52.7514 -2.15
52.7824 -2.15
52.81103 -2.15
52.84176 -2.15
52.87509 -2.15
52.90842 -2.15
52.93992 -2.15
52.96961 -2.15
52.9991 -2.15
53.03243 -2.15
53.06117 -2.15
53.09131 -2.15
53.12434 -2.15
53.15765 -2.15
53.19098 -2.15
53.21923 -2.15
53.24985 -2.15
53.28318 -2.15
53.31652 -2.15
53.34985 -2.15
53.37834 -2.15
53.41167 -2.15
53.44501 -2.15
53.47834 -2.15
53.51165 -2.15
53.54337 -2.15
53.57273 -2.15
53.6009 -2.15
53.63094 -2.15
53.66427 -2.15
53.6976 -2.15
53.7263 -2.15
53.75428 -2.15
53.78507 -2.15
53.8184 -2.15
53.85173 -2.15
53.88083 -2.15
53.91147 -2.15
53.94383 -2.15
53.97717 -2.15
54.00966 -2.15
54.043 -2.15
54.07069 -2.15
54.09924 -2.15
54.13258 -2.15
54.16216 -2.15
54.1913 -2.15
54.2206 -2.15
54.25293 -2.15
54.28627 -2.15
54.31553 -2.15
54.34473 -2.15
54.37802 -2.15
54.40676 -2.15
54.44009 -2.15
54.46834 -2.15
54.4998 -2.15
54.53258 -2.15
54.56131 -2.15
54.59464 -1.95
54.62402 -1.95
54.65736 -1.5
54.68419 -1.05
54.71459 -1.05
54.74792 -0.85
54.7812 -0.65
54.81454 -0.65
54.84374 -0.65
54.87278 -0.65
54.90612 -0.65
54.93426 -0.65
54.96579 -0.65
54.99321 -0.65
55.02537 -0.65
55.0587 -0.65
55.09204 -0.65
55.12537 -0.65
55.15766 -0.65
55.18644 -0.65
55.21977 -0.65
55.24821 -0.65
55.27945 -0.65
55.3107 -0.65
55.34095 -0.65
55.37428 -0.65
55.40627 -0.65
55.4368 -0.65
55.47013 -0.65
55.50233 -0.65
55.53566 -0.65
55.56733 -0.65
55.598 -0.65
55.62698 -0.65
55.65597 -0.65
55.6893 -0.65
55.72264 -0.65
55.75194 -0.65
55.78168 -0.65
55.81033 -0.65
55.84366 -0.65
55.87507 -0.65
55.9057 -0.65
55.93448 -0.65
55.96466 -0.65
55.99799 -0.65
56.02999 -0.65
56.05833 -0.65
56.08851 -0.65
56.118 -0.65
56.15133 -0.65
56.17919 -0.65
56.21043 -0.65
56.23892 -0.65
56.27188 -0.65
56.30521 -0.65
56.33855 -0.65
56.36555 -0.65
56.39888 -0.65
56.42759 -0.65
56.46092 -0.65
56.49053 -0.65
56.51956 -0.65
56.54747 -0.65
56.57815 -0.65
56.61148 -0.65
56.64328 -0.65
56.67237 -0.65
56.70558 -0.65
56.73461 -0.65
56.76794 -0.65
56.80128 -0.65
56.83461 -0.65
56.86309 -0.65
56.89642 -0.65
56.92976 -0.65
56.96149 -0.65
56.98942 -0.65
57.01892 -0.65
57.05066 -0.65
57.08399 -0.65
57.11604 -0.65
57.14524 -0.65
57.17381 -0.65
57.20215 -0.65
57.23549 -0.65
57.26524 -0.65
57.29255 -0.65
57.32232 -0.65
57.35565 -0.65
57.38899 -0.65
57.41836 -0.65
57.44988 -0.65
57.47878 -0.65
57.50836 -0.65
57.54169 -0.65
57.5717 -0.65
57.60503 -0.65
57.63343 -0.65
57.66676 -0.65
57.7001 -0.65
57.72979 -0.65
57.75978 -0.65
57.79311 -0.65
57.82383 -0.65
57.85716 -0.65
57.88554 -0.65
57.91412 -0.65
57.94745 -0.65
57.9744 -0.65
58.00774 -0.65
58.04107 -0.65
58.07132 -0.65
58.09959 -0.65
58.1286 -0.65
58.16193 -0.65
58.19498 -0.4
58.22289 -0.4
58.25404 0
58.28366 0
58.31699 0.65
58.34711 1.05
58.37581 1.05
58.40915 1.05
58.44248 1.05
58.47581 1.05
58.50915 1.05
58.5362 1.05
58.56861 1.05
58.59769 1.3
58.63102 2.15
58.66348 2.15
58.69188 3.05
58.7197 3.9
58.74895 3.9
58.78228 4.15
58.81151 4.15
58.83963 4.15
58.8707 3.9
58.90403 3.9
58.93737 3.9
58.96668 3.9
58.99806 3.9
59.03139 3.9
59.06473 3.9
59.09806 3.9
59.13058 3.9
59.15924 3.9
59.18917 3.9
59.22247 3.9
59.2558 4.15
59.28402 4.15
59.31301 4.55
59.34056 4.55
59.37091 5.85
59.40424 5.85
59.43493 6.95
59.46826 8.3
59.49835 8.3
59.52704 9.6
59.56038 10.45
59.59223 10.45
59.62364 11.55
59.65516 12.45
59.68573 12.45
59.71907 13.5
59.74924 14.4
59.78258 14.4
59.81019 15.05
59.83801 15.05
59.87135 15.7
59.89912 16.35
59.92768 16.35
59.95693 17.25
59.99026 18.3
60.0236 18.3
60.05328 19.2
60.0828 19.85
60.11135 19.85
60.13951 20.3
60.17284 20.3
60.2011 20.95
60.23306 21.8
60.26545 21.8
60.29419 23.15
60.32752 24.2
60.35771 24.2
60.38626 25.55
60.41677 25.55
60.44446 26.65
60.47779 27.7
60.50772 27.7
60.54105 29.7
60.57439 32.1
60.60549 32.1
60.63882 34.25
60.66883 36.9
60.69726 36.9
60.7263 38.85
60.75963 38.85
60.79296 41.25
60.82585 43.45
60.85443 43.45
60.88251 45.4
60.91104 46.5
60.94438 46.5
60.97382 48.05
61.00231 49.35
61.03119 49.35
61.05923 50.2
61.09257 50.2
61.12093 51.95
61.15162 53.3
61.18041 53.3
61.21136 55.25
61.2447 57.85
61.27465 57.85
61.30412 62
61.3371 62
61.3653 66.4
61.39863 70.1
61.42584 70.1
61.45844 74.9
61.4875 74.9
61.51694 79.95
61.55027 83.85
61.57989 83.85
61.61016 88
61.63914 91.7
61.67248 91.7
61.70581 94.35
61.73509 96.55
61.76842 96.55
61.7989 97.4
61.83044 97.6
61.86377 97.6
61.89272 98.7
61.92081 98.7
61.95102 100.7
61.97931 103.75
62.01264 105.25
62.04044 105.25
62.07152 107.25
62.10168 107.25
62.13502 107.9
62.16835 109.65
62.20038 109.65
62.23072 111.8
62.26007 115.75
62.28934 115.75
62.32267 119.25
62.35601 123.85
62.38757 123.85
62.42031 127.35
62.44836 127.35
62.4817 131.9
62.51503 135
62.54762 138.45
62.57994 138.45
62.6082 142.2
62.64154 145
62.67129 145
62.70462 147.85
62.73286 147.85
62.76416 151.15
62.79749 153.55
62.82642 153.55
62.85504 156.4
62.88424 156.4
62.91585 158.8
62.94918 161.85
62.97861 161.85
63.01194 164.7
63.04015 167.75
63.07168 167.75
63.10501 170.15
63.13493 172.55
63.16275 172.55
63.1926 174.95
63.22184 174.95
63.25517 177.8
63.28717 180.65
63.31542 180.65
63.34387 184.35
63.37304 184.35
63.40638 187.2
63.43971 191.35
63.47133 191.35
63.5043 195.25
63.53251 198.3
63.56585 201.15
63.59492 201.15
63.62377 204.45
63.65136 204.45
63.67968 208.35
63.71302 212.5
63.74309 212.5
63.77547 215.8
63.80514 215.8
63.83847 218.4
63.8718 218.4
63.90146 218.4
63.93004 218.4
63.95762 218.4
63.98618 218.4
64.01952 218.4
64.04903 218.4
64.07656 218.4
64.10907 218.4
64.13689 218.4
64.17023 218.4
64.20197 218.4
64.23019 218.4
64.25935 218.4
64.2875 218.4
64.32083 218.4
64.35416 218.4
64.3875 218.4
64.41789 218.4
64.44775 218.4
64.48109 218.4
64.50924 218.4
64.53717 218.4
64.56473 218.4
64.59296 218.4
64.6263 218.4
64.65618 218.4
64.68522 218.4
64.71855 218.4
64.749 218.4
64.78233 218.4
64.81303 218.4
64.84277 218.4
64.87202 218.4
64.90188 218.4
64.93521 218.2
64.96542 218.2
64.99764 218.2
65.02761 218.2
65.06094 218.2
65.09428 218.2
65.12125 218.2
65.15075 218.2
65.18102 218.4
65.20982 218.4
65.24315 218.4
65.27339 218.4
65.30264 218.4
65.33206 218.4
65.36539 218.4
65.39873 218.4
65.42768 218.4
65.45669 218.4
65.48415 218.4
65.51258 218.4
65.54591 218.4
65.57608 218.4
65.60357 218.4
65.63341 218.4
65.66148 218.4
65.69482 218.4
65.72276 218.4
65.75043 218.4
65.77963 218.4
65.80878 218.4
65.84212 218.4
65.87371 218.4
65.90382 218.4
65.93338 218.4
65.96121 218.4
65.99454 218.4
66.02207 218.4
66.05107 218.4
66.07925 218.4
66.10688 218.4
66.13519 218.4
66.16852 218.4
66.19997 218.4
66.228 218.4
66.26133 218.4
66.29245 218.4
66.32579 218.4
66.35411 218.4
66.38705 218.4
66.41508 218.4
66.4451 218.4
66.47843 218.4
66.51176 218.4
66.54167 218.4
66.57337 218.4
66.6067 218.4
66.64004 218.4
66.67319 218.4
66.70031 218.4
66.73295 218.4
66.76628 218.4
66.79907 218.4
66.8316 218.4
66.86079 218.4
66.89272 218.4
66.92161 218.4
66.95494 218.4
66.98768 218.4
67.01488 218.4
67.04334 218.4
67.07668 218.4
67.11001 218.4
67.13702 218.4
67.16633 218.4
67.19344 218.4
67.22219 218.4
67.25552 218.4
67.28886 218.4
67.31603 218.4
67.34937 218.4
67.38007 218.4
67.41341 218.4
67.44361 218.4
67.47542 218.4
67.50808 218.4
67.5377 218.4
67.57104 218.4
67.60133 218.4
67.63019 218.4
67.66193 218.4
67.69061 218.4
67.72394 218.4
67.75042 218.4
67.78197 218.4
67.8093 218.4
67.83792 218.4
67.87125 218.4
67.90262 218.4
67.9325 218.4
67.9604 218.4
67.98898 218.4
68.02232 218.4
68.05327 218.4
68.08153 218.4
68.11259 218.4
68.14211 218.4
68.17542 218.4
68.20403 218.4
68.23217 218.4
68.26029 218.4
68.29088 218.4
68.32421 218.4
68.35754 218.4
68.38989 218.4
68.41731 218.4
68.44665 218.4
68.47943 218.4
68.51276 218.4
68.54143 218.4
68.57087 218.4
68.60044 218.4
68.63016 218.4
68.66349 218.4
68.69421 218.4
68.72631 218.4
68.7551 218.4
68.78712 218.4
68.82046 218.4
68.84989 218.4
68.88035 218.4
68.90816 218.4
68.94112 218.4
68.97404 218.4
69.00388 218.4
69.03192 218.4
69.06129 218.4
69.09462 218.4
69.12795 218.4
69.15997 218.4
69.18856 218.4
69.21592 218.4
69.24574 218.4
69.27908 218.4
69.30923 218.4
69.34219 218.4
69.37493 218.4
69.40337 218.4
69.4367 218.4
69.46468 218.4
69.49374 218.4
69.52634 218.4
69.55454 218.4
69.58788 218.4
69.61839 218.4
69.64847 218.4
69.6818 218.4
69.71513 218.4
69.74847 218.4
69.77746 218.4
69.80716 218.4
69.83585 218.4
69.86842 218.4
69.90176 218.4
69.93094 218.4
69.95804 218.4
69.98679 218.4
70.01631 218.4
70.04964 218.4
70.07736 218.4
70.10959 218.4
70.13683 218.4
70.16973 218.4
70.20306 218.4
70.23206 218.4
70.2654 218.4
70.29786 218.4
70.32597 218.4
70.3593 218.4
70.3917 218.4
70.42503 218.4
70.45455 218.4
70.48234 218.4
70.51567 218.4
70.54554 218.4
70.5762 218.4
70.60595 218.4
70.63423 218.4
70.66756 218.4
70.7009 218.4
70.73031 218.4
70.75805 218.4
70.79077 218.4
70.8241 218.4
70.85356 218.4
70.8809 218.4
70.90904 218.4
70.93621 218.4
70.96954 218.4
70.99711 218.4
71.0284 218.4
71.05502 218.4
71.0863 218.4
71.11964 218.4
71.152 218.4
71.1815 218.4
71.21276 218.4
71.24447 218.4
71.2778 218.4
71.30702 218.4
71.34035 218.4
71.37369 218.4
71.40424 218.4
71.43729 218.4
71.46574 218.4
71.49908 218.4
71.52728 218.4
71.55453 218.4
71.58786 218.4
71.61949 218.4
71.65012 218.4
71.67806 218.4
71.70734 218.4
71.74067 218.4
71.76951 218.4
71.80225 218.4
71.83558 218.4
71.86659 218.4
71.89993 218.4
71.93085 218.4
71.96322 218.4
71.99108 218.4
72.0209 218.4
72.05423 218.4
72.08756 218.4
72.11429 218.4
72.14442 218.4
72.17391 218.4
72.20724 218.4
72.24058 218.4
72.27222 218.4
72.30144 218.4
72.33477 218.2
72.3681 218.2
72.39675 218.2
72.42477 218.2
72.45365 218.2
72.48251 218.2
72.51585 218.2
72.54716 218.2
72.57565 218.2
72.60287 218.2
72.63621 218.2
72.66925 218.2
72.69733 218.2
72.72549 218.2
72.75417 218.2
72.78355 218.2
72.81689 218.2
72.85022 218.2
72.87992 218
72.9092 217.35
72.93793 217.35
72.97127 216.45
73.0046 216.45
73.0325 216.25
73.06416 216.25
73.09499 216.25
73.12829 216.25
73.16162 215.8
73.19414 215.8
73.22672 215.15
73.26005 213.6
73.28919 213.6
73.32253 212.5
73.35586 212.1
73.38562 212.1
73.4146 211.65
73.44378 211.65
73.47711 211.65
73.5067 211.65
73.53459 211.65
73.56637 211.65
73.5945 211.65
73.62783 211.65
73.6552 211.65
73.68378 211.65
73.71386 211.65
73.74713 211.65
73.78046 211.65
73.8138 211.65
73.84714 211.85
73.88047 211.85
73.90803 211.85
73.94136 211.85
73.96967 211.85
73.99988 212.1
74.02753 212.1
74.05596 212.3
74.08929 212.75
74.12263 212.75
74.15375 212.95
74.18439 212.95
74.21503 213.2
74.24834 213.2
74.28168 213.2
74.31077 213.2
74.34062 213.2
74.37395 213.2
74.40318 213.4
74.43651 214.05
74.46419 214.05
74.49621 214.7
74.52467 215.6
74.55482 215.6
74.58801 216.45
74.62135 216.45
74.65047 217.55
74.67935 218.4
74.70638 218.4
74.73971 218.4
74.77171 218.2
74.80505 218.2
74.8357 218.4
74.86455 218.4
74.89788 218.4
74.92603 218.4
74.95332 218.4
74.98393 218.4
75.01223 218.4
75.04556 218.4
75.07309 218.2
75.10113 218.2
75.13446 218.2
75.1638 218.2
75.19713 218.2
75.22665 218.2
75.25369 218.2
75.28295 218.2
75.31127 218.2
75.3446 218.2
75.37507 218.2
75.4043 218.2
75.43278 218.2
75.46258 218
75.49591 218
75.52551 217.55
75.55884 216.9
75.58783 216.9
75.61686 216.45
75.65019 216.25
75.68092 216.25
75.71091 216
75.74039 216
75.76807 215.8
75.80059 215.8
75.83125 215.8
75.86216 215.35
75.88982 215.35
75.92305 214.95
75.95638 214.25
75.98841 212.75
76.02042 212.75
76.04791 211.45
76.08125 211.45
76.11458 209.7
76.14652 207.3
76.17829 207.3
76.21033 205.1
76.23819 202.5
76.27152 202.5
76.29925 200.05
76.32757 196.35
76.35648 196.35
76.3858 192.2
76.41914 188.95
76.44926 188.95
76.47655 185.45
76.50671 185.45
76.53654 183.25
76.56987 182.15
76.59869 182.15
76.62725 180.85
76.66058 179.75
76.68915 179.75
76.72248 178.25
76.75043 176.5
76.77819 176.5
76.80685 173.85
76.83451 173.85
76.86784 171
76.895 168.2
76.92377 168.2
76.95255 162.7
76.98362 162.7
77.01695 156.6
77.04626 148.3
77.07607 148.3
77.10593 140.65
77.1386 133.65
77.17194 133.65
77.2017 124.95
77.2345 113.8
77.26219 113.8
77.2944 102.85
77.32773 102.85
77.35652 90
77.38501 79.05
77.41519 79.05
77.44343 68.8
77.47676 55.7
77.50393 55.7
77.53727 42.35
77.56429 42.35
77.59762 28.35
77.63095 17.45
77.65913 17.45
77.68777 4.35
77.71647 4.35
77.74557 -4.15
77.77489 -10
77.80822 -10
77.83912 -16.35
77.87031 -23.35
77.90364 -23.35
77.93383 -29.7
77.96716 -35.15
77.9987 -35.15
78.02818 -43.9
78.06151 -43.9
78.09206 -53.7
78.12539 -60.7
78.1539 -60.7
78.18472 -68.55
78.21307 -68.55
78.24545 -76
78.27878 -81.9
78.31113 -89.3
78.34177 -89.3
78.36844 -96.55
78.39864 -96.55
78.43198 -104.85
78.4603 -111.4
78.48968 -111.4
78.51977 -119.45
78.55171 -119.45
78.58504 -125.8
78.61205 -133.45
78.64008 -133.45
78.66759 -141.3
78.70092 -148.75
78.73426 -148.75
78.76402 -154.65
78.79222 -161.85
78.82114 -161.85
78.85429 -167.95
78.88762 -171.65
78.91766 -171.65
78.95099 -176.25
78.97923 -176.25
79.00927 -184.55
79.0426 -190
79.07332 -190
79.10184 -200.75
79.13519 -209.7
79.16648 -209.7
79.19981 -216.9
79.23315 -218.4
79.26648 -218.4
79.29339 -218.4
79.32228 -218.4
79.35561 -218.4
79.38587 -218.4
79.41472 -218.4
79.44454 -218.4
79.47286 -218.4
79.5062 -218.4
79.53374 -218.4
79.56258 -218.4
79.59189 -218.4
79.62093 -218.4
79.65424 -218.4
79.68757 -218.4
79.71429 -218.4
79.74341 -218.4
79.77232 -218.4
79.80566 -218.4
79.83346 -218.4
79.86301 -218.4
79.89085 -218.4
79.92384 -218.4
79.95718 -218.4
79.9874 -218.4
80.01492 -218.4
80.04825 -218.4
80.0764 -218.4
80.10973 -218.4
80.13851 -218.4
80.16801 -218.4
80.19518 -218.4
80.2248 -218.4
80.25771 -218.4
80.29104 -218.4
80.31895 -218.4
80.3516 -218.4
80.38017 -218.4
80.4135 -218.4
80.44125 -218.4
80.47048 -218.4
80.50381 -218.4
80.53584 -218.4
80.56918 -218.4
80.60251 -218.4
80.63581 -218.4
80.66785 -218.4
80.6953 -218.4
80.72864 -218.4
80.75793 -218.4
80.78761 -218.4
80.8172 -218.4
80.84629 -218.4
80.87962 -218.4
80.91023 -218.4
80.93774 -218.4
80.9673 -218.4
81.00014 -218.4
81.03348 -218.4
81.0614 -218.4
81.09473 -218.4
81.12496 -218.4
81.15646 -218.4
81.1898 -218.4
81.22313 -218.4
81.25063 -218.4
81.28122 -218.4
81.31188 -218.4
81.34521 -218.4
81.3744 -218.4
81.40286 -218.4
81.43455 -218.4
81.46788 -218.4
81.50121 -218.4
81.53455 -218.4
81.56724 -218.4
81.59966 -218.4
81.62775 -218.4
81.66109 -218.4
81.69442 -218.4
81.72263 -218.4
81.75203 -218.4
81.7819 -218.4
81.81523 -218.4
81.84362 -218.4
81.87132 -218.4
81.90141 -218.4
81.9306 -218.4
81.96393 -218.4
81.99175 -218.4
82.02509 -218.4
82.05701 -218.2
82.09034 -218.2
82.12367 -218.2
82.15504 -218
82.18346 -215.6
82.21404 -215.6
82.24347 -212.3
82.2768 -212.3
82.30447 -207.7
82.33565 -203.35
82.36434 -203.35
82.3933 -200.05
82.42663 -200.05
82.45996 -196.6
82.49151 -192.45
82.51981 -192.45
82.55287 -189.6
82.5862 -187.4
82.61664 -187.4
82.64521 -186.1
82.67638 -185.85
82.70734 -185.85
82.74068 -185.85
82.77401 -185.85
82.80093 -185.85
82.83081 -185.85
82.85952 -185.85
82.89285 -185.65
82.92469 -184.55
82.95335 -184.55
82.98317 -181.7
83.01284 -181.7
83.04617 -178.25
83.07951 -172.35
83.10845 -172.35
83.14178 -167.1
83.17512 -161.4
83.20845 -161.4
83.2365 -156.8
83.26601 -153.1
83.29638 -153.1
83.32616 -149.6
83.3595 -149.6
83.3897 -145.45
83.41838 -139.15
83.44749 -139.15
83.47674 -130.8
83.51007 -117.95
83.5434 -117.95
83.57568 -106.6
83.60706 -106.6
83.63659 -99.15
83.66992 -93.05
83.69985 -93.05
83.72762 -92.6
83.75706 -92.6
83.78499 -92.15
83.81484 -91.3
83.84818 -91.3
83.88054 -90.85
83.90968 -90.2
83.93835 -90.2
83.96854 -89.55
84.00188 -88.45
84.03521 -88.45
84.06313 -87.35
84.09081 -87.35
84.12263 -85.8
84.15597 -84.5
84.1893 -84.5
84.21678 -82.35
84.24569 -82.35
84.27749 -80.6
84.31082 -79.7
84.34306 -79.25
84.37286 -79.25
84.40514 -79.25
84.43373 -79.25
84.46706 -79.25
84.49637 -79.25
84.52513 -79.25
84.55384 -79.25
84.5867 -79.25
84.62003 -79.25
84.64763 -79.25
84.68096 -79.25
84.71394 -79.25
84.74163 -79.25
84.77496 -79.25
84.80419 -79.25
84.83752 -79.25
84.86944 -79.25
84.89864 -79.25
84.93197 -79.25
84.96302 -79.25
84.99512 -79.25
85.02299 -79.25
85.05184 -79.25
85.08506 -79.25
85.11353 -79.25
85.14142 -79.25
85.17146 -79.25
85.19959 -79.7
85.22928 -79.7
85.26261 -81.25
85.29594 -83.85
85.32468 -83.85
85.35362 -88.45
85.38696 -91.7
85.42029 -91.7
85.44917 -96.55
85.48002 -100.45
85.50771 -100.45
85.54 -105.25
85.57289 -105.25
85.6045 -109.85
85.63124 -113.15
85.66022 -113.15
85.68822 -118.35
85.71634 -118.35
85.74967 -124.5
85.78199 -130.4
85.81422 -130.4
85.84756 -135.4
85.88089 -141.75
85.91422 -146.75
85.94756 -146.75
85.97648 -152.9
86.00365 -152.9
86.03597 -157.5
86.06878 -162.3
86.10211 -162.3
86.1321 -164.7
86.16048 -167.3
86.18922 -167.3
86.22255 -171.45
86.25301 -175.15
86.28214 -175.15
86.31059 -180.2
86.34344 -180.2
86.37677 -183.9
86.40787 -188.3
86.43475 -188.3
86.4632 -191.75
86.49229 -191.75
86.52562 -196.6
86.55774 -199.65
86.58477 -199.65
86.61709 -201.6
86.64825 -205.3
86.68159 -205.3
86.71343 -209.45
86.74184 -209.45
86.7712 -215.15
86.79998 -218.4
86.83331 -218.4
86.86665 -218.4
86.8969 -218.4
86.92422 -218.4
86.95756 -218.4
86.99089 -218.4
87.02284 -218.4
87.05321 -218.4
87.08186 -218.4
87.11152 -218.4
87.14485 -218.4
87.17334 -218.4
87.20107 -218.4
87.22833 -218.4
87.26114 -218.4
87.29406 -218.4
87.32736 -218.4
87.35719 -218.4
87.38532 -218.4
87.41678 -218.4
87.45011 -218.4
87.48032 -218.4
87.51057 -218.4
87.53874 -218.4
87.57071 -218.4
87.60404 -218.4
87.63737 -218.4
87.66798 -218.4
87.69715 -218.4
87.72527 -218.4
87.7586 -218.4
87.79193 -218.4
87.82455 -218.4
87.8558 -218.4
87.8864 -218.4
87.91973 -218.4
87.95306 -218.4
87.98132 -218.4
88.01465 -218.4
88.04436 -218.4
88.07769 -218.4
88.10624 -218.4
88.13769 -218.4
88.16525 -218.4
88.19852 -218.4
88.23186 -218.4
88.26142 -218.4
88.29224 -218.4
88.32423 -218.4
88.35467 -218.4
88.388 -218.4
88.4188 -218.4
88.44981 -218.4
88.4814 -218.4
88.51237 -218.4
88.54571 -218.4
88.57904 -218.4
88.61062 -218.4
88.63927 -218.4
88.67001 -218.4
88.70335 -218.4
88.73143 -218.4
88.75975 -218.4
88.78729 -218.4
88.81738 -218.4
88.85071 -218.4
88.88116 -218.4
88.91122 -218.4
88.94455 -218.4
88.97643 -218.4
89.00977 -218.4
89.04139 -218.4
89.07056 -218.4
89.09775 -218.4
89.13108 -218.4
89.16441 -218.4
89.19714 -218.4
89.22571 -218.4
89.25877 -218.4
89.28976 -218.4
89.32309 -218.4
89.35313 -218.4
89.38397 -218.4
89.41219 -218.4
89.44176 -218.4
89.47509 -218.4
89.50401 -218.4
89.5323 -218.4
89.56245 -218.4
89.5909 -218.4
89.62423 -218.4
89.65523 -218.4
89.68324 -218.4
89.71154 -218.4
89.74231 -218.4
89.77564 -218.4
89.80806 -218.4
89.83681 -218.4
89.86466 -218.4
89.89273 -218.4
89.92606 -218.4
89.95427 -218.4
89.98682 -218.4
90.01875 -218.4
90.04956 -218.4
90.08289 -218.4
90.11214 -218.4
90.13977 -218.4
90.16914 -218.4
90.19765 -218.4
90.22729 -218.4
90.26062 -218.4
90.2935 -218.4
90.32684 -218.4
90.35668 -218.4
90.38513 -218.4
90.41846 -218.4
90.44604 -218.4
90.47445 -218.4
90.50311 -218.4
90.53155 -218.4
90.5621 -218.4
90.59543 -218.4
90.62425 -218.4
90.65759 -218.4
90.68514 -218.4
90.71765 -218.4
90.75098 -218.4
90.7819 -218.4
90.81121 -218.4
90.84454 -218.4
90.87171 -218.4
90.90504 -218.4
90.93389 -218.4
90.96713 -218.4
90.99799 -218.4
91.03106 -218.4
91.06439 -218.4
91.09432 -218.4
91.12411 -218.4
91.15398 -218.4
91.18334 -218.4
91.21667 -218.4
91.24628 -218.4
91.27606 -218.4
91.30385 -218.4
91.33276 -218.4
91.36609 -218.4
91.39942 -218.4
91.43154 -218.4
91.45931 -218.4
91.48832 -218.4
91.52165 -218.4
91.55208 -218.4
91.58073 -218.4
91.60883 -218.4
91.63923 -218.4
91.67256 -218.4
91.70282 -218.4
91.7344 -218.4
91.76773 -218.4
91.79702 -218.4
91.83035 -218.4
91.86021 -218.4
91.88844 -218.4
91.91676 -218.4
91.94589 -218.4
91.97892 -218.4
92.00733 -218.4
92.03512 -218.4
92.06348 -218.4
92.09315 -218.4
92.12572 -218.4
92.15906 -218.4
92.18834 -218.4
92.22167 -218.4
92.25071 -218.4
92.28179 -218.4
92.31512 -218.4
92.34275 -218.4
92.37356 -218.4
92.40579 -218.4
92.43459 -218.4
92.46721 -218.4
92.49609 -218.4
92.52686 -218.4
92.55672 -218.4
92.58715 -218.4
92.62048 -218.4
92.65382 -218.4
92.68591 -218.4
92.71656 -218.4
92.74607 -218.4
92.7794 -218.4
92.80967 -218.4
92.84207 -218.4
92.87156 -218.4
92.90223 -218.4
92.93556 -218.4
92.9638 -218.4
92.99189 -218.4
93.01871 -218.4
93.04942 -218.4
93.08275 -218.4
93.11608 -218.4
93.14461 -218.4
93.17431 -218.4
93.20381 -218.4
93.23714 -218.4
93.2673 -218.4
93.29788 -218.4
93.32513 -218.4
93.35355 -218.4
93.38688 -218.4
93.41651 -218.4
93.44381 -218.4
93.47714 -218.4
93.50388 -218.4
93.53721 -218.4
93.56767 -218.4
93.59637 -218.4
93.6272 -218.4
93.65611 -218.4
93.68945 -218.4
93.71986 -218.4
93.74729 -218.4
93.77555 -218.4
93.80888 -218.4
93.84222 -218.4
93.86938 -218.4
93.90194 -218.4
93.93265 -218.4
93.96598 -218.4
93.99931 -218.4
94.03206 -218.4
94.05885 -218.4
94.09147 -218.4
94.1248 -218.4
94.15813 -218.4
94.18855 -218.4
94.22054 -218.4
94.24987 -218.4
94.28153 -218.4
94.31487 -218.4
94.3482 -218.4
94.37684 -218.4
94.40559 -218.4
94.43892 -218.4
94.47225 -218.4
94.50558 -218.4
94.53748 -218.4
94.56778 -218.4
94.60056 -218.4
94.6339 -218.4
94.66411 -218.4
94.69166 -218.4
94.72499 -218.4
94.7543 -218.4
94.78763 -218.4
94.81515 -218.4
94.84848 -218.4
94.88181 -218.4
94.91149 -218.4
94.9442 -218.4
94.9756 -218.4
95.00841 -218.4
95.04002 -218.4
95.07028 -218.4
95.10361 -218.4
95.13135 -218.4
95.16058 -218.4
95.18928 -218.4
95.22095 -218.4
95.2543 -218.4
95.28414 -218.4
95.31143 -218.4
95.3428 -218.4
95.37099 -218.4
95.40433 -218.4
95.43162 -218.4
95.46337 -218.4
95.49014 -218.4
95.52348 -218.4
95.55681 -218.4
95.58634 -218.4
95.61819 -218.4
95.6513 -218.4
95.68427 -218.4
95.71761 -218.4
95.74499 -218.4
95.77832 -218.4
95.8084 -218.4
95.83756 -218.4
95.8709 -218.4
95.89983 -218.4
95.92724 -218.4
95.95541 -218.4
95.98376 -218.4
96.01709 -218.4
96.04424 -218.4
96.07179 -218.4
96.10036 -218.4
96.13238 -218.4
96.16571 -218.4
96.19357 -218.4
96.22519 -218.4
96.25852 -218.4
96.29185 -218.4
96.32519 -218.4
96.35361 -218.4
96.3835 -218.4
96.41615 -218.4
96.44572 -218.4
96.47906 -218.4
96.50845 -218.4
96.53643 -218.4
96.56976 -218.2
96.60017 -218.2
96.63351 -218.2
96.66066 -218.2
96.69191 -218.2
96.72457 -217.55
96.75356 -216.25
96.7869 -216.25
96.8186 -214.95
96.84741 -214.05
96.88074 -214.05
96.90829 -213.4
96.94162 -212.95
96.97316 -212.95
97.00487 -211.2
97.0382 -207.7
97.0715 -207.7
97.10484 -205.55
97.13817 -203.55
97.16537 -203.55
97.19804 -203.15
97.22735 -203.15
97.26068 -203.15
97.29401 -203.15
97.32735 -203.15
97.35567 -202.9
97.38469 -202.5
97.41802 -202.5
97.44968 -202.05
97.48026 -202.05
97.51057 -202.05
97.54167 -202.05
97.575 -202.05
97.60405 -202.05
97.63313 -202.05
97.66223 -202.05
97.69556 -202.05
97.7289 -202.05
97.76223 -201.6
97.79556 -201.6
97.82635 -201.6
97.85413 -201.6
97.88747 -201.15
97.91621 -200.95
97.94955 -200.95
97.97852 -200.75
98.00835 -200.5
98.04169 -200.5
98.07176 -200.3
98.09971 -200.05
98.1311 -200.05
98.15887 -200.05
98.1922 -200.05
98.22314 -199.85
98.25616 -199.4
98.28316 -199.4
98.313 -198.55
98.34634 -198.55
98.37967 -197.9
98.41054 -197.45
98.44387 -197.45
98.47721 -197
98.51054 -196.8
98.54242 -196.15
98.57313 -196.15
98.60397 -195.5
98.63531 -195.5
98.66865 -194.85
98.6972 -194.15
98.72903 -194.15
98.75839 -192
98.78806 -188.3
98.82139 -188.3
98.84795 -182.6
98.87636 -176.5
98.90421 -176.5
98.93625 -168.4
98.96958 -168.4
99.00291 -162.7
99.03123 -157.5
99.06078 -157.5
99.08862 -153.75
99.12195 -151.6
99.15163 -151.6
99.18461 -151.6
99.21177 -151.6
99.24393 -151.6
99.27722 -149.15
99.30924 -149.15
99.33861 -145.25
99.36644 -145.25
99.39455 -139.55
99.42789 -133.65
99.45516 -133.65
99.48569 -129.3
99.51829 -123.6
99.54973 -123.6
99.58306 -119.7
99.61423 -115.1
99.64373 -115.1
99.6736 -111.8
99.70493 -111.8
99.73827 -110.3
99.76594 -108.1
99.79927 -108.1
99.82813 -105.05
99.85714 -100.7
99.88991 -100.7
99.92324 -97.85
99.94978 -97.85
99.98312 -90
100.0105 -83.2
100.0439 -83.2
100.0705 -76.85
100.0991 -76.85
100.1293 -72.7
100.1597 -69.45
100.193 -69.45
100.223 -68.55
100.2511 -68.55
100.2799 -68.35
100.3115 -67.7
100.3443 -67.7
100.3718 -66.15
100.4013 -65.5
100.4309 -65.5
100.4605 -65.05
100.4908 -65.05
100.5241 -64
100.5518 -61.35
100.5801 -61.35
100.6076 -57.65
100.6367 -57.65
100.6651 -51.75
100.6985 -45.2
100.7262 -45.2
100.7554 -39.5
100.7826 -39.5
100.8147 -31.85
100.848 -26.4
100.8772 -26.4
100.91 -20.3
100.9368 -20.3
100.9687 -16.6
101.002 -15.5
101.0326 -15.5
101.0637 -14.4
101.0911 -14.4
101.1245 -12.85
101.1578 -11.75
101.1876 -10
101.2196 -10
101.2516 -8.7
101.2836 -7.2
101.3167 -7.2
101.3444 -6.3
101.3778 -6.3
101.4049 -6.3
101.4352 -6.3
101.4686 -6.3
101.4997 -6.3
101.533 -6.3
101.5608 -6.3
101.5886 -6.55
101.622 -6.55
101.6516 -6.55
101.6811 -6.1
101.7144 -6.1
101.7468 -5.85
101.7802 -5.45
101.8101 -5.45
101.8383 -4.55
101.8684 -3.7
101.8952 -3.7
101.9286 -2.8
101.9619 -2.8
101.9922 -2.15
102.0196 -1.7
102.0515 -1.7
102.0811 -1.5
102.1144 -1.3
102.1411 -1.3
102.1709 -1.05
102.1982 -1.05
102.2269 -0.4
102.2599 0.4
102.2889 0.4
102.3168 1.7
102.3462 1.7
102.3773 3.05
102.4107 5.2
102.4422 5.2
102.4754 8.05
102.5046 12.65
102.5335 12.65
102.5668 16.35
102.6002 16.35
102.6291 20.05
102.6602 23.15
102.6876 23.15
102.721 25.55
102.7514 27.7
102.7807 27.7
102.8088 29.25
102.8402 29.25
102.8735 30.1
102.9031 31.65
102.9313 31.65
102.9645 33.6
102.9949 36.9
103.0283 36.9
103.055 40.4
103.0831 40.4
103.1144 45
103.1429 48.7
103.1709 48.7
103.2042 53.3
103.235 56.55
103.2637 56.55
103.2939 60.05
103.3258 60.05
103.3591 62.45
103.3869 64.85
103.4168 64.85
103.4453 66.15
103.4757 66.15
103.509 67.05
103.5395 66.8
103.5726 66.8
103.6005 66.4
103.6296 66.4
103.6629 65.3
103.6928 64.4
103.7199 64.4
103.749 63.1
103.7769 63.1
103.8068 62
103.84 61.6
103.87 61.6
103.9033 61.6
103.9321 61.6
103.9638 61.6
103.9971 61.6
104.0255 61.6
104.0543 61.6
104.0816 61.6
104.1149 61.6
104.1479 61.6
104.1762 61.6
104.2036 61.6
104.2355 61.6
104.2625 61.6
104.2959 61.6
104.3292 61.6
104.3574 61.6
104.3865 61.8
104.4162 61.8
104.4495 61.8
104.4828 62
104.5109 62.25
104.5433 62.25
104.5714 62.45
104.6006 62.45
104.6339 63.1
104.6656 63.55
104.6926 63.55
104.7219 64.4
104.7508 64.4
104.7841 65.3
104.8154 66.4
104.8471 66.4
104.8754 67.05
104.9042 67.05
104.9376 67.05
104.9709 67.05
105.0001 66.6
105.0325 66.6
105.0613 66.15
105.0946 65.95
105.1266 65.95
105.1542 65.75
105.1831 65.75
105.2115 65.75
105.2449 65.75
105.2769 65.75
105.3038 65.75
105.3335 65.75
105.364 65.95
105.3973 66.6
105.4297 66.6
105.4602 67.9
105.4888 67.9
105.519 69.45
105.5523 70.95
105.5856 73.35
105.6154 73.35
105.648 74.9
105.6762 74.9
105.7096 76.65
105.7375 77.95
105.7671 77.95
105.7939 79.25
105.8229 79.25
105.8526 80.6
105.886 81.45
105.9138 81.45
105.9425 82.55
105.9742 82.55
106.0075 83.65
106.0409 84.3
106.0715 84.3
106.1049 85.6
106.1331 86.9
106.1631 86.9
106.1964 88.25
106.2243 90.4
106.2527 90.4
106.2812 93.45
106.3107 93.45
106.3424 95.45
106.3757 97.4
106.4067 97.4
106.44 98.3
106.4693 98.7
106.502 98.7
106.5353 98.7
106.5674 98.7
106.5974 98.7
106.6275 98.7
106.6576 98.7
106.691 98.7
106.7243 98.7
106.7536 98.7
106.7859 98.7
106.8164 98.7
106.8497 98.7
106.8787 98.7
106.9077 98.7
106.9361 98.7
106.9646 98.7
106.9963 98.7
107.0296 98.7
107.0574 98.7
107.0908 98.7
107.1241 98.7
107.1536 98.7
107.1869 98.7
107.2147 98.7
107.2466 98.7
107.2749 98.7
107.304 98.7
107.3373 98.7
107.3669 98.7
107.3993 98.7
107.427 98.7
107.4604 98.7
107.4937 98.7
107.527 98.7
107.5551 98.7
107.5885 98.7
107.6174 98.7
107.6507 98.7
107.68 98.7
107.7075 99.15
107.7409 99.35
107.7742 99.35
107.8075 99.6
107.8359 99.6
107.8643 100.25
107.896 100.7
107.9247 100.7
107.958 100.9
107.9904 101.1
108.0206 101.1
108.0491 101.35
108.0779 101.35
108.1113 101.35
108.1413 101.35
108.1717 101.35
108.1998 101.35
108.2276 101.35
108.2605 101.35
108.2931 101.35
108.325 101.35
108.3543 101.35
108.3876 101.35
108.4209 101.35
108.4483 101.35
108.4816 101.35
108.515 101.35
108.5424 101.35
108.5758 101.35
108.6091 101.35
108.6367 101.55
108.67 101.55
108.6998 101.55
108.7331 101.55
108.7619 101.55
108.7908 101.55
108.8195 101.55
108.8482 101.55
108.8815 101.55
108.9134 101.55
108.9408 101.55
108.9718 101.55
109.0051 101.55
109.0385 101.55
109.0708 101.55
109.1012 101.1
109.1339 100.25
109.1656 100.25
109.1989 98.05
109.2291 94.8
109.2608 94.8
109.2941 91.5
109.3235 87.35
109.3568 87.35
109.3856 82.55
109.416 78.4
109.4429 78.4
109.4715 72.7
109.5048 72.7
109.5382 66.8
109.5694 64.4
109.5998 64.4
109.6326 55.9
109.6659 50
109.6954 50
109.7239 44.3
109.7522 44.3
109.7834 41.05
109.8168 38.65
109.8463 38.65
109.8738 37.75
109.9068 36.65
109.9387 36.65
109.9721 30.55
109.9994 30.55
110.0327 26.2
110.065 19.4
110.0927 19.4
110.126 12
110.1594 6.95
110.1883 6.95
110.2216 1.3
110.2502 -3.7
110.2836 -3.7
110.3131 -7.6
110.3422 -10.7
110.3709 -10.7
110.4007 -11.55
110.434 -11.75
110.4666 -11.75
110.4941 -12.85
110.5259 -12.85
110.554 -13.1
110.5874 -13.1
110.6156 -13.1
110.6462 -13.1
110.6749 -13.1
110.7062 -13.1
110.7395 -12.2
110.768 -12.2
110.7953 -11.1
110.8279 -11.1
110.8578 -10.7
110.8911 -10
110.9223 -10
110.9534 -9.35
110.9829 -9.35
111.0133 -9.35
111.0467 -9.35
111.0752 -9.35
111.1054 -9.35
111.1371 -9.35
111.165 -9.35
111.1983 -9.35
111.2302 -9.35
111.2602 -9.35
111.2935 -9.35
111.3269 -9.35
111.3602 -9.35
111.3908 -9.35
111.418 -9.35
111.4514 -9.35
111.4823 -9.35
111.5157 -9.35
111.5458 -9.35
111.5789 -9.35
111.6073 -9.35
111.6406 -9.35
111.674 -9.35
111.7072 -9.15
111.7374 -9.15
111.7671 -8.95
111.7961 -8.7
111.8294 -8.7
111.8628 -8.5
111.894 -8.05
111.9233 -8.05
111.9548 -8.05
111.9881 -8.05
112.0171 -8.05
112.0455 -8.05
112.0745 -8.05
112.1026 -8.05
112.1359 -8.05
112.1692 -8.05
112.2 -8.05
112.2285 -8.05
112.2596 -8.05
112.2879 -8.05
112.3212 -8.05
112.3492 -8.05
112.3784 -8.05
112.4117 -8.05
112.442 -8.05
112.4754 -8.05
112.5062 -8.05
112.535 -8.05
112.5662 -8.05
112.5964 -8.05
112.6297 -8.05
112.6589 -8.05
112.687 -8.05
112.7178 -8.05
112.751 -8.05
112.7844 -8.05
112.8172 -8.05
112.8459 -8.05
112.8745 -8.05
112.9026 -8.05
112.9359 -8.05
112.9693 -8.05
113.0026 -8.05
113.0306 -8.05
113.0589 -8.05
113.0922 -8.05
113.123 -8.05
113.15 -8.05
113.1833 -8.05
113.212 -8.05
113.2453 -8.05
113.2776 -8.05
113.3109 -8.05
113.3377 -8.05
113.3651 -8.05
113.3985 -8.05
113.4265 -8.05
113.459 -8.05
113.4884 -8.05
113.515 -8.05
113.5484 -8.05
113.5755 -8.05
113.6088 -8.05
113.6403 -8.05
113.6726 -8.05
113.706 -8.05
113.7352 -8.05
113.7679 -8.05
113.7983 -8.05
113.8289 -8.05
113.8622 -8.05
113.8903 -8.05
113.9237 -8.05
113.957 -8.05
113.986 -8.05
114.0193 -8.05
114.0507 -8.05
114.0832 -8.05
114.1122 -8.05
114.1405 -8.05
114.1739 -8.05
114.2018 -8.05
114.2315 -8.05
114.2649 -8.05
114.2982 -8.05
114.3315 -8.05
114.3595 -8.05
114.3882 -8.05
114.4193 -8.05
114.4485 -8.05
114.4818 -8.05
114.5127 -8.05
114.543 -8.05
114.5716 -8.05
114.6032 -8.05
114.6365 -8.05
114.6657 -8.05
114.6922 -8.05
114.7256 -8.05
114.7526 -7.85
114.7859 -7.85
114.8161 -7.85
114.8466 -7.6
114.8753 -7.6
114.9083 -7.4
114.9409 -7.2
114.9733 -7.2
115.0018 -6.95
115.0303 -6.95
115.0594 -6.95
115.0927 -6.95
115.1204 -6.95
115.1492 -6.95
115.1781 -6.95
115.2078 -6.95
115.24 -6.95
115.2699 -6.95
115.2971 -6.95
115.3254 -6.95
115.3558 -6.95
115.388 -6.95
115.4213 -6.95
115.4547 -6.95
115.4849 -6.95
115.5179 -6.95
115.5481 -6.95
115.5815 -6.95
115.6147 -6.95
115.648 -6.95
115.6766 -6.95
115.7053 -6.95
115.7386 -6.95
115.7676 -6.95
115.7954 -6.95
115.8242 -6.95
115.8575 -6.95
115.8908 -6.95
115.9226 -6.95
115.9559 -6.95
115.9835 -6.95
116.0129 -6.95
116.0462 -6.95
116.076 -6.95
116.1043 -6.95
116.1373 -6.95
116.1682 -6.95
116.2015 -6.95
116.2298 -6.75
116.2584 -6.75
116.2867 -6.75
116.3193 -6.75
116.3527 -6.75
116.3811 -6.75
116.4091 -6.75
116.4376 -6.75
116.4649 -6.75
116.4982 -6.75
116.525 -6.75
116.5532 -6.75
116.5861 -6.75
116.6146 -6.75
116.6479 -6.75
116.6763 -6.75
116.7056 -6.75
116.7332 -6.75
116.7602 -6.75
116.7885 -6.75
116.8219 -6.75
116.8526 -6.75
116.8801 -6.75
116.9086 -6.75
116.94 -6.75
116.973 -6.75
117.003 -6.75
117.0315 -6.75
117.063 -6.75
117.0918 -6.75
117.1251 -6.75
117.1562 -6.75
117.1868 -6.75
117.2181 -6.75
117.2502 -6.75
117.2836 -6.75
117.3129 -6.75
117.3402 -6.75
117.3716 -6.75
117.3999 -6.75
117.4328 -6.75
117.4626 -6.75
117.4944 -6.75
117.5217 -6.75
117.5531 -6.75
117.5864 -6.75
117.6155 -6.75
117.6456 -6.75
117.6736 -6.75
117.7026 -6.75
117.7352 -6.75
117.7669 -6.75
117.7952 -6.75
117.8231 -6.75
117.8535 -6.75
117.8868 -6.75
117.916 -6.75
117.9446 -6.75
117.9747 -6.75
118.0081 -6.75
118.0414 -6.75
118.0701 -6.75
118.1034 -6.75
118.1327 -6.75
118.1607 -6.75
118.194 -6.75
118.2214 -6.75
118.2509 -6.75
118.2784 -6.75
118.31 -6.75
118.3433 -6.75
118.3721 -6.75
118.4037 -6.75
118.4371 -6.75
118.4679 -6.75
118.5012 -6.75
118.5313 -6.75
118.5598 -6.75
118.5873 -6.75
118.6195 -6.75
118.6528 -6.75
118.6845 -6.75
118.7118 -6.75
118.7426 -6.75
118.7719 -6.75
118.8052 -6.75
118.8346 -6.75
118.8631 -6.75
118.8904 -6.75
118.9205 -6.75
118.9539 -6.75
118.9815 -6.75
119.0084 -6.75
119.0414 -6.75
119.0736 -6.75
119.1069 -6.75
119.1343 -6.75
119.1673 -6.75
119.1985 -6.75
119.228 -6.75
119.2613 -6.75
119.2923 -6.75
119.3219 -6.75
119.3504 -6.75
119.3773 -6.75
119.4049 -6.75
119.4383 -6.75
119.4682 -6.75
119.5016 -6.75
119.5349 -6.75
119.5682 -6.75
119.6016 -6.75
119.6297 -6.75
119.659 -6.75
119.6908 -6.75
119.7183 -6.75
119.7516 -6.75
119.7794 -6.75
119.8084 -6.75
119.8418 -6.75
119.8695 -6.75
119.9028 -6.75
119.9317 -6.75
119.9621 -6.75
119.989 -6.75
120.0223 -6.75
120.0556 -6.75
120.0843 -6.75
120.1115 -6.75
120.1399 -6.75
120.1681 -6.75
120.2014 -6.75
120.2346 -6.75
120.2679 -6.75
120.2959 -6.75
120.3243 -6.75
120.3576 -6.75
120.3864 -6.75
120.4197 -6.75
120.4487 -6.75
120.4785 -6.75
120.5118 -6.75
120.544 -6.75
120.5773 -6.75
120.6049 -6.75
120.6363 -6.75
120.6692 -6.75
120.6983 -6.75
120.7263 -6.75
120.7554 -6.75
120.7825 -6.75
120.8133 -6.75
120.8466 -6.75
120.8749 -6.75
120.9024 -6.75
120.9315 -6.75
120.9604 -6.75
120.989 -6.75
121.0223 -6.75
121.0538 -6.75
121.0872 -6.75
121.1205 -6.75
121.1538 -6.75
121.186 -6.75
121.2153 -6.75
121.2438 -6.75
121.2722 -6.75
121.3055 -6.75
121.3345 -6.75
121.364 -6.75
121.3962 -6.75
121.4261 -6.75
121.4588 -6.75
121.4884 -6.75
121.5166 -6.75
121.5464 -6.75
121.5771 -6.75
121.6105 -6.75
121.6398 -6.75
121.6731 -6.75
121.7058 -6.75
121.7342 -6.75
121.7675 -6.75
121.7966 -6.75
121.8235 -6.75
121.8524 -6.75
121.8803 -6.75
121.9086 -6.75
121.942 -6.75
121.9721 -6.75
122.0054 -6.75
122.0367 -6.75
122.07 -6.75
122.1034 -6.75
122.1313 -6.75
122.1608 -6.75
122.1907 -6.75
122.2187 -6.75
122.2521 -6.75
122.2822 -6.75
122.3095 -6.75
122.3371 -6.75
122.3651 -6.75
122.3935 -6.75
122.4268 -6.75
122.4561 -6.75
122.4845 -6.75
122.5148 -6.75
122.5426 -6.75
122.5759 -6.75
122.6075 -6.75
122.6408 -6.75
122.6694 -6.75
122.6991 -6.75
122.7325 -6.75
122.7627 -6.75
122.7905 -6.75
122.8239 -6.75
122.852 -6.75
122.8853 -6.75
122.9124 -6.75
122.9401 -6.75
122.9685 -6.75
122.9963 -6.75
123.0289 -6.75
123.0623 -6.75
123.0899 -6.75
123.1211 -6.75
123.1486 -6.75
123.1784 -6.75
123.2118 -6.75
123.2432 -6.75
123.2709 -6.75
123.2983 -6.75
123.3254 -6.75
123.3588 -6.75
123.3921 -6.75
123.4211 -6.75
123.4492 -6.75
123.4825 -6.75
123.5102 -6.75
123.5436 -6.75
123.5748 -6.75
123.6031 -6.75
123.6336 -6.75
123.667 -6.75
123.6994 -6.75
123.7288 -6.75
123.7564 -6.75
123.7897 -6.75
123.8212 -6.75
123.8545 -6.75
123.8878 -6.75
123.916 -6.75
123.9446 -6.75
123.978 -6.75
124.0113 -6.75
124.0397 -6.75
124.0665 -6.75
124.0955 -6.75
124.1248 -6.75
124.1527 -6.75
124.1861 -6.75
124.2152 -6.75
124.2432 -6.75
124.2733 -6.75
124.3007 -6.75
124.3341 -6.75
124.3665 -6.75
124.3981 -6.75
124.4277 -6.75
124.457 -6.75
124.4902 -6.75
124.5192 -6.75
124.5465 -6.75
124.5793 -6.75
124.608 -6.75
124.6414 -6.75
124.6692 -6.75
124.6989 -6.75
124.7253 -6.75
124.7563 -6.75
124.783 -6.75
124.8164 -6.75
124.8434 -6.75
124.8713 -6.75
124.8986 -6.75
124.9302 -6.75
124.9635 -6.75
124.9937 -6.75
125.0209 -6.75
125.0491 -6.75
125.0764 -6.75
125.1082 -6.75
125.1415 -6.75
125.1707 -6.75
125.1987 -6.75
125.229 -6.75
125.2623 -6.75
125.2957 -6.75
125.3245 -6.75
125.3542 -6.75
125.3876 -6.75
125.4209 -6.75
125.4542 -6.75
125.4857 -6.75
125.514 -6.75
125.5473 -6.75
125.5789 -6.75
125.6123 -6.75
125.6456 -6.75
125.6745 -6.75
125.7074 -6.75
125.7382 -6.75
125.7705 -6.75
125.7985 -6.75
125.8289 -6.75
125.8599 -6.75
125.8906 -6.75
125.924 -6.75
125.9507 -6.75
125.9836 -6.75
126.0143 -6.75
126.0418 -6.75
126.0751 -6.75
126.1073 -6.75
126.1379 -6.75
126.1681 -6.75
126.2015 -6.75
126.2348 -6.75
126.2618 -6.75
126.2913 -6.75
126.3179 -6.75
126.3466 -6.75
126.3751 -6.75
126.4084 -6.75
126.4404 -6.75
126.4706 -6.75
126.4988 -6.75
126.5321 -6.75
126.5655 -6.75
126.5988 -6.75
126.6284 -6.75
126.6582 -6.75
126.6897 -6.75
126.723 -6.75
126.7512 -6.75
126.779 -6.75
126.8086 -6.75
126.8394 -6.75
126.8728 -6.75
126.9009 -6.75
126.9318 -6.75
126.9599 -6.75
126.9898 -6.75
127.0232 -6.75
127.0541 -6.75
127.0822 -6.75
127.1155 -6.75
127.1488 -6.75
127.1822 -6.75
127.2131 -6.75
127.241 -6.75
127.2699 -6.75
127.2978 -6.75
127.3311 -6.75
127.3587 -6.75
127.3875 -6.75
127.4146 -6.75
127.4428 -6.75
127.4754 -6.75
127.5087 -6.75
127.542 -6.75
127.5751 -6.75
127.6058 -6.75
127.634 -6.75
127.667 -6.75
127.6958 -6.75
127.7284 -6.75
127.7574 -6.75
127.7863 -6.75
127.8196 -6.75
127.8495 -6.75
127.8829 -6.75
127.9138 -6.75
127.9444 -6.75
127.9778 -6.75
128.0054 -6.75
128.0357 -6.75
128.0664 -6.75
128.0934 -6.75
128.1267 -6.75
128.1566 -6.75
128.186 -6.75
128.2134 -6.75
128.2436 -6.75
128.2769 -6.75
128.3086 -6.75
128.336 -6.75
128.3676 -6.75
128.3948 -6.75
128.4281 -6.75
128.4577 -6.75
128.4862 -6.75
128.5138 -6.75
128.5464 -6.75
128.5798 -6.75
128.609 -6.75
128.6398 -6.75
128.6694 -6.75
128.697 -6.75
128.7303 -6.75
128.7588 -6.75
128.7922 -6.75
128.8237 -6.75
128.8564 -6.75
128.8897 -6.75
128.9187 -6.75
128.952 -6.75
128.9792 -6.75
129.009 -6.75
129.0423 -6.75
129.0687 -6.75
129.1021 -6.75
129.132 -6.75
129.1653 -6.75
129.1986 -6.75
129.2315 -6.75
129.2598 -6.75
129.2894 -6.75
129.3179 -6.75
129.3512 -6.75
129.3797 -6.75
129.4084 -6.75
129.4368 -6.75
129.4679 -6.75
129.5012 -6.75
129.5307 -6.75
129.5592 -6.75
129.5878 -6.75
129.615 -6.75
129.6457 -6.75
129.679 -6.75
129.7103 -6.75
129.7437 -6.75
129.7721 -6.75
129.8037 -6.75
129.837 -6.75
129.8704 -6.75
129.8994 -6.75
129.9303 -6.75
129.9636 -6.75
129.9969 -6.75
130.0265 -6.75
130.0537 -6.75
130.0866 -6.75
130.1149 -6.75
130.1483 -6.75
130.1761 -6.75
130.2047 -6.75
130.232 -6.75
130.2602 -6.75
130.288 -6.75
130.3214 -6.75
130.3528 -6.75
130.3842 -6.75
130.4121 -6.75
130.4453 -6.75
130.4787 -6.75
130.512 -6.75
130.54 -6.75
130.5682 -6.75
130.5984 -6.75
130.6318 -6.75
130.6614 -6.75
130.6896 -6.75
130.7168 -6.75
130.746 -6.75
130.7793 -6.75
130.8068 -6.75
130.8365 -6.75
130.8662 -6.75
130.8995 -6.75
130.9329 -6.75
130.9625 -6.75
130.9911 -6.75
131.0202 -6.75
131.05 -6.75
131.0833 -6.75
131.1127 -6.75
131.1398 -6.75
131.1719 -6.75
131.2017 -6.75
131.235 -6.75
131.2633 -6.75
131.2923 -6.75
131.3206 -6.75
131.3487 -6.75
131.3816 -6.75
131.4102 -6.75
131.4381 -6.75
131.468 -6.75
131.4969 -6.75
131.5282 -6.75
131.5615 -6.75
131.5901 -6.75
131.6175 -6.75
131.6496 -6.75
131.6768 -6.75
131.705 -6.75
131.7384 -6.75
131.7665 -6.75
131.7959 -6.75
131.8257 -6.75
131.8532 -6.75
131.8866 -6.75
131.914 -6.75
131.9452 -6.75
131.9719 -6.75
132.0036 -6.75
132.0369 -6.75
132.0668 -6.75
132.0983 -6.75
132.1279 -6.75
132.1556 -6.75
132.1889 -6.75
132.2169 -6.75
132.2466 -6.75
132.2796 -6.75
132.3084 -6.75
132.3417 -6.75
132.3751 -6.75
132.4043 -6.75
132.4368 -6.75
132.4648 -6.75
132.4981 -6.75
132.5257 -6.75
132.556 -6.75
132.5845 -6.75
132.6118 -6.75
132.6437 -6.75
132.677 -6.75
132.7072 -6.75
132.7406 -6.75
132.7692 -6.75
132.7991 -6.75
132.8324 -6.75
132.8635 -6.75
132.8909 -6.75
132.922 -6.75
132.9523 -6.75
132.9857 -6.75
133.0134 -6.75
133.0421 -6.75
133.0721 -6.75
133.1054 -6.75
133.1387 -6.75
133.1678 -6.75
133.1986 -6.75
133.2284 -6.75
133.2572 -6.75
133.2905 -6.75
133.3215 -6.75
133.3528 -6.75
133.3829 -6.75
133.4162 -6.75
133.4496 -6.75
133.477 -6.75
133.5047 -6.75
133.5325 -6.75
133.5606 -6.75
133.589 -6.75
133.6224 -6.75
133.651 -6.75
133.6794 -6.75
133.7102 -6.75
133.7405 -6.75
133.7739 -6.75
133.8042 -6.75
133.8338 -6.75
133.8613 -6.75
133.8916 -6.75
133.9249 -6.75
133.9549 -6.75
133.9838 -6.75
134.0172 -6.75
134.0444 -6.75
134.0777 -6.75
134.1069 -6.75
134.1362 -6.75
134.1688 -6.75
134.1975 -6.75
134.2308 -6.75
134.2595 -6.75
134.2903 -6.75
134.3217 -6.75
134.3506 -6.75
134.3839 -6.75
134.4138 -6.75
134.4427 -6.75
134.4702 -6.75
134.5017 -6.75
134.5351 -6.75
134.5684 -6.75
134.5964 -6.75
134.6247 -6.75
134.6521 -6.75
134.6854 -6.75
134.7187 -6.75
134.7465 -6.75
134.7733 -6.75
134.8037 -6.75
134.8371 -6.75
134.8692 -6.75
134.9001 -6.75
134.9296 -6.75
134.9605 -6.75
134.9938 -6.75
135.0255 -6.75
135.0542 -6.75
135.0875 -6.75
135.1197 -6.75
135.153 -6.75
135.1813 -6.75
135.2095 -6.75
135.2385 -6.75
135.2686 -6.75
135.2973 -6.75
135.3306 -6.75
135.3588 -6.75
135.3865 -6.75
135.4145 -6.75
135.4424 -6.75
135.4758 -6.75
135.5091 -6.75
135.5398 -6.75
135.5696 -6.75
135.599 -6.75
135.6277 -6.75
135.6611 -6.75
135.6903 -6.75
135.719 -6.75
135.7523 -6.75
135.7807 -6.75
135.814 -6.75
135.846 -6.75
135.8793 -6.75
135.9089 -6.75
135.9365 -6.75
135.9698 -6.75
136.0031 -6.75
136.0313 -6.75
136.0623 -6.75
136.0941 -6.75
136.1274 -6.75
136.1566 -6.75
136.1846 -6.75
136.2132 -6.75
136.2417 -6.75
136.2751 -6.75
136.3045 -6.75
136.337 -6.75
136.3669 -6.75
136.3961 -6.75
136.4295 -6.75
136.4628 -6.75
136.4899 -6.75
136.5226 -6.75
136.5515 -6.75
136.5848 -6.75
136.614 -6.75
136.6434 -6.75
136.6763 -6.75
136.7083 -6.75
136.7416 -6.75
136.7722 -6.75
136.8042 -6.75
136.8337 -6.75
136.8611 -6.75
136.8944 -6.75
136.923 -6.75
136.9512 -6.75
136.9807 -6.75
137.0128 -6.75
137.0461 -6.75
137.0759 -6.75
137.1044 -6.75
137.1377 -6.75
137.1655 -6.75
137.1988 -6.75
137.2265 -6.75
137.2598 -6.75
137.2923 -6.75
137.3249 -6.75
137.3582 -6.75
137.3872 -6.75
137.4177 -6.75
137.4467 -6.75
137.4766 -6.75
137.51 -6.75
137.537 -6.75
137.5661 -6.75
137.595 -6.75
137.6258 -6.75
137.6591 -6.75
137.6877 -6.75
137.7165 -6.75
137.7498 -6.75
137.7795 -6.75
137.8128 -6.75
137.8437 -6.75
137.8739 -6.75
137.9026 -6.75
137.9359 -6.75
137.9691 -6.75
138 -6.75
138.0334 -6.75
138.0624 -6.75
138.0909 -6.75
138.1242 -6.75
138.151 -6.75
138.1809 -6.75
138.2082 -6.75
138.2378 -6.75
138.2711 -6.75
138.299 -6.75
138.3263 -6.75
138.3547 -6.75
138.3835 -6.75
138.4121 -6.75
138.4455 -6.75
138.4788 -6.75
138.51 -6.75
138.5381 -6.75
138.5685 -6.75
138.6018 -6.75
138.6287 -6.75
138.6565 -6.75
138.6877 -6.75
138.7159 -6.75
138.7435 -6.75
138.7768 -6.75
138.8102 -6.75
138.8415 -6.75
138.8703 -6.75
138.9032 -6.75
138.9365 -6.75
138.968 -6.75
139.0002 -6.75
139.0326 -6.75
139.0659 -6.75
139.0993 -6.75
139.1267 -6.75
139.1578 -6.75
139.1855 -6.75
139.2182 -6.75
139.2516 -6.75
139.2802 -6.75
139.3101 -6.75
139.3387 -6.75
139.3669 -6.75
139.4003 -6.75
139.4308 -6.75
139.4642 -6.75
139.4919 -6.75
139.5224 -6.75
139.5557 -6.75
139.589 -6.75
139.6171 -6.75
139.6504 -6.75
139.6801 -6.75
139.7134 -6.75
139.7456 -6.75
139.773 -6.75
139.8017 -6.75
139.833 -6.75
139.8663 -6.75
139.8949 -6.75
139.9224 -6.75
139.9522 -6.75
139.9803 -6.75
140.0136 -6.75
140.0462 -6.75
140.0764 -6.75
140.1097 -6.75
140.1384 -6.75
140.1718 -6.75
140.2004 -6.75
140.2274 -6.75
140.2571 -6.75
140.2842 -6.75
140.3134 -6.75
140.3467 -6.75
140.3742 -6.75
140.4034 -6.75
140.4348 -6.75
140.4635 -6.75
140.4968 -6.75
140.5252 -6.75
140.5548 -6.75
140.5854 -6.75
140.6161 -6.75
140.6495 -6.75
140.6767 -6.75
140.704 -6.75
140.7329 -6.75
140.7638 -6.75
140.7971 -6.75
140.8266 -6.75
140.8572 -6.75
140.8853 -6.75
140.9169 -6.75
140.9502 -6.75
140.978 -6.75
141.0057 -6.75
141.0338 -6.75
141.0614 -6.75
141.0947 -6.75
141.1224 -6.75
141.1508 -6.75
141.1784 -6.75
141.2082 -6.75
141.2415 -6.75
141.2693 -6.75
141.2999 -6.75
141.3322 -6.75
141.36 -6.75
141.3933 -6.75
141.422 -6.75
141.4521 -6.75
141.4818 -6.75
141.5128 -6.75
141.5461 -6.75
141.575 -6.75
141.6035 -6.75
141.6338 -6.75
141.6609 -6.75
141.6942 -6.75
141.7227 -6.75
141.7516 -6.75
141.7846 -6.75
141.8129 -6.75
141.8462 -6.75
141.8757 -6.75
141.9065 -6.75
141.9355 -6.75
141.9687 -6.75
142.002 -6.75
142.0339 -6.75
142.0653 -6.75
142.0943 -6.75
142.1233 -6.75
142.1566 -6.75
142.1871 -6.75
142.2148 -6.75
142.2454 -6.75
142.2735 -6.75
142.3068 -6.75
142.3359 -6.75
142.3658 -6.75
142.3941 -6.75
142.4273 -6.75
142.4607 -6.75
142.494 -6.75
142.5242 -6.75
142.5546 -6.75
142.5876 -6.75
142.6209 -6.75
142.6512 -6.75
142.6795 -6.75
142.7091 -6.75
142.7379 -6.75
142.7712 -6.75
142.8007 -6.75
142.828 -6.75
142.8589 -6.75
142.8874 -6.75
142.9207 -6.75
142.9489 -6.75
142.9775 -6.75
143.007 -6.75
143.0401 -6.75
143.0734 -6.75
143.1027 -6.75
143.1297 -6.75
143.1607 -6.75
143.1885 -6.75
143.2219 -6.75
143.2506 -6.75
143.2821 -6.75
143.3092 -6.75
143.3383 -6.75
143.3716 -6.75
143.4008 -6.75
143.4325 -6.75
143.4628 -6.75
143.4961 -6.75
143.5295 -6.75
143.5598 -6.75
143.5891 -6.75
143.6179 -6.75
143.6471 -6.75
143.6804 -6.75
143.7084 -6.75
143.7358 -6.75
143.7647 -6.75
143.7924 -6.75
143.8258 -6.75
143.8559 -6.75
143.8893 -6.75
143.9199 -6.75
143.9482 -6.75
143.9815 -6.75
144.0148 -6.75
144.0482 -6.75
144.0768 -6.75
144.1077 -6.75
144.141 -6.75
144.1687 -6.75
144.2017 -6.75
144.233 -6.75
144.261 -6.75
144.2943 -6.75
144.3227 -6.75
144.3518 -6.75
144.3847 -6.75
144.413 -6.75
144.4463 -6.75
144.4759 -6.75
144.5092 -6.75
144.5363 -6.75
144.5658 -6.75
144.5991 -6.75
144.6311 -6.75
144.6596 -6.75
144.6887 -6.75
144.7185 -6.75
144.7518 -6.75
144.7814 -6.75
144.8105 -6.75
144.8385 -6.75
144.8719 -6.75
144.9052 -6.75
144.9385 -6.75
144.9669 -6.75
145.0002 -6.75
145.0335 -6.75
145.0668 -6.75
145.0952 -6.75
145.1286 -6.75
145.1564 -6.75
145.1863 -6.75
145.2188 -6.75
145.2472 -6.75
145.2762 -6.75
145.3038 -6.75
145.3309 -6.75
145.362 -6.75
145.3953 -6.75
145.4257 -6.75
145.4527 -6.75
145.4809 -6.75
145.5092 -6.75
145.5425 -6.75
145.5738 -6.75
145.6047 -6.75
145.6353 -6.75
145.6674 -6.75
145.7007 -6.75
145.7291 -6.75
145.7621 -6.75
145.7898 -6.75
145.8177 -6.75
145.851 -6.75
145.8779 -6.75
145.9062 -6.75
145.9354 -6.75
145.9647 -6.75
145.9928 -6.75
146.0261 -6.75
146.0548 -6.75
146.0824 -6.75
146.1108 -6.75
146.1441 -6.75
146.1775 -6.75
146.2064 -6.75
146.2356 -6.75
146.2683 -6.75
146.2983 -6.75
146.3317 -6.75
146.365 -6.75
146.3969 -6.75
146.4234 -6.75
146.4561 -6.75
146.4894 -6.75
146.5176 -6.75
146.5446 -6.75
146.5752 -6.75
146.603 -6.75
146.6364 -6.75
146.6628 -6.75
146.6916 -6.75
146.7226 -6.75
146.753 -6.75
146.7864 -6.75
146.8197 -6.75
146.8467 -6.75
146.8792 -6.75
146.9087 -6.75
146.9418 -6.75
146.9687 -6.75
146.9984 -6.75
147.0258 -6.75
147.0547 -6.75
147.0873 -6.75
147.1206 -6.75
147.1475 -6.75
147.1774 -6.75
147.2073 -6.75
147.2406 -6.75
147.274 -6.75
147.3023 -6.75
147.3339 -6.75
147.3644 -6.75
147.3936 -6.75
147.427 -6.75
147.4603 -6.75
147.4898 -6.75
147.5182 -6.75
147.5459 -6.75
147.5792 -6.75
147.608 -6.75
147.6388 -6.75
147.6721 -6.75
147.7007 -6.75
147.734 -6.75
147.7631 -6.75
147.7913 -6.75
147.8188 -6.75
147.8485 -6.75
147.8819 -6.75
147.9126 -6.75
147.9424 -6.75
147.9757 -6.75
148.0032 -6.75
148.0365 -6.75
148.0647 -6.75
148.0948 -6.75
148.1226 -6.75
148.1511 -6.75
148.1796 -6.75
148.213 -6.75
148.2407 -6.75
148.2687 -6.75
148.2969 -6.75
148.33 -6.75
148.3626 -6.75
148.3918 -6.75
148.4206 -6.75
148.449 -6.75
148.4794 -6.75
148.51 -6.75
148.5433 -6.75
148.5735 -6.75
148.6024 -6.75
148.6358 -6.75
148.663 -6.75
148.6963 -6.75
148.725 -6.75
148.7528 -6.75
148.7803 -6.75
148.8129 -6.75
148.8462 -6.75
148.8744 -6.75
148.9024 -6.75
148.9344 -6.75
148.9632 -6.75
148.9966 -6.75
149.0266 -6.75
149.0562 -6.75
149.084 -6.75
149.1172 -6.75
149.1506 -6.75
149.1833 -6.75
149.2123 -6.75
149.2401 -6.75
149.2697 -6.75
149.3031 -6.75
149.33 -6.75
149.3579 -6.75
149.3903 -6.75
149.42 -6.75
149.4533 -6.75
149.4835 -6.75
149.5115 -6.75
149.5416 -6.75
149.575 -6.75
149.6083 -6.75
149.6354 -6.75
149.6642 -6.3
149.691 -5.85
149.7233 -5.85
149.7565 -5.2
149.7895 -5.2
149.8164 -5.2
149.8444 -5.2
149.872 -5.2
149.9039 -5.2
149.9372 -5.2
149.964 -5.2
149.9943 -5.2
150.0276 -5.2
150.057 -5.2
150.0903 -5.2
150.1185 -5.2
150.1469 -5.2
150.1783 -5.2
150.2113 -5.2
150.2447 -5.2
150.278 -5.2
150.3092 -5.2
150.3384 -5.2
150.3666 -5.2
150.4 -5.2
150.43 -5.2
150.458 -5.2
150.4867 -5.2
150.5175 -5.2
150.5501 -5.2
150.5782 -5.2
150.6067 -5.2
150.6401 -5.2
150.6689 -5.2
150.7022 -5.2
150.7299 -5.2
150.7632 -5.2
150.7915 -5.2
150.8232 -5.2
150.8566 -5.2
150.8864 -5.2
150.914 -5.2
150.9431 -5.2
150.9707 -5.2
151.0024 -5.2
151.0357 -5.2
151.0638 -5.2
151.091 -5.2
151.121 -5.2
151.1472 -5.2
151.1759 -5.2
151.2093 -5.2
151.2385 -5.2
151.2663 -5.2
151.2955 -5.2
151.3273 -5.2
151.3606 -5.2
151.3925 -5.2
151.4248 -5.2
151.453 -5.2
151.4839 -5.2
151.5173 -5.2
151.5457 -5.2
151.5778 -5.2
151.6112 -5.2
151.6386 -5.2
151.672 -5.2
151.7019 -5.2
151.7337 -5.2
151.7621 -5.2
151.7955 -5.2
151.8288 -5.2
151.8575 -5.2
151.8859 -5.2
151.9179 -5.2
151.9512 -5.2
151.9845 -5.2
152.0141 -5.2
152.0464 -5.2
152.0743 -5.2
152.1071 -5.2
152.1405 -5.2
152.1694 -5.2
152.1987 -5.2
152.2301 -5.2
152.2586 -5.2
152.2919 -5.2
152.3201 -5.2
152.3483 -5.2
152.3758 -5.2
152.405 -5.2
152.4383 -5.2
152.4661 -5.2
152.4977 -5.2
152.5306 -5.2
152.5612 -5.2
152.5945 -5.2
152.6227 -5.2
152.6525 -5.2
152.6826 -5.2
152.7109 -5.2
152.7442 -5.2
152.7776 -5.2
152.8048 -5.2
152.8337 -5.2
152.8618 -5.2
152.8951 -5.2
152.9285 -5.2
152.9589 -5.2
152.9868 -5.2
153.0177 -5.2
153.051 -5
153.084 -5
153.1115 -5
153.1448 -4.8
153.1719 -4.8
153.2052 -4.55
153.2363 -4.55
153.2642 -4.55
153.2927 -4.55
153.3207 -4.55
153.3541 -4.55
153.3831 -4.55
153.4115 -4.55
153.4405 -4.55
153.4691 -4.55
153.5024 -4.55
153.5318 -4.55
153.5613 -4.55
153.5912 -4.55
153.6224 -4.55
153.6558 -4.55
153.6849 -4.55
153.7151 -4.55
153.7434 -4.55
153.7699 -4.55
153.8015 -4.55
153.8349 -4.55
153.8629 -4.55
153.8933 -4.55
153.922 -4.55
153.9488 -4.55
153.9821 -4.55
154.0116 -4.55
154.0393 -4.55
154.067 -4.55
154.097 -4.55
154.1247 -4.55
154.158 -4.55
154.1913 -4.55
154.2204 -4.55
154.2491 -4.55
154.2769 -4.55
154.3103 -4.55
154.3387 -4.55
154.3656 -4.55
154.3957 -4.55
154.4239 -4.55
154.4572 -4.55
154.4903 -4.55
154.5234 -4.55
154.5516 -4.55
154.5836 -4.55
154.617 -4.55
154.6465 -4.55
154.6741 -4.55
154.7035 -4.55
154.732 -4.55
154.7608 -4.55
154.7941 -4.55
154.8265 -4.55
154.8598 -4.55
154.8932 -4.55
154.9207 -4.55
154.954 -4.55
154.9809 -4.55
155.0122 -4.55
155.0392 -4.55
155.0725 -4.55
155.1058 -4.55
155.1371 -4.55
155.1688 -4.55
155.2012 -4.55
155.229 -4.55
155.2623 -4.55
155.2894 -4.55
155.3179 -4.55
155.3456 -4.55
155.3758 -4.55
155.4048 -4.55
155.4382 -4.55
155.4666 -4.55
155.4975 -4.55
155.5308 -4.55
155.5641 -4.55
155.5975 -4.55
155.625 -4.55
155.6531 -4.55
155.6837 -4.55
155.7138 -4.55
155.7471 -4.55
155.7805 -4.55
155.8094 -4.55
155.8369 -4.55
155.8684 -4.55
155.9017 -4.55
155.9339 -4.55
155.9627 -4.55
155.9931 -4.55
156.0232 -4.55
156.0565 -4.55
156.0836 -4.55
156.1122 -4.55
156.1423 -4.55
156.1699 -4.55
156.1971 -4.55
156.2305 -4.55
156.2638 -4.55
156.2971 -4.55
156.3252 -4.55
156.3585 -4.55
156.3919 -4.55
156.4212 -4.55
156.4496 -4.55
156.4829 -4.55
156.5142 -4.55
156.5475 -4.55
156.5773 -4.55
156.6058 -4.55
156.6381 -4.55
156.6693 -4.55
156.7027 -4.55
156.7352 -4.55
156.7659 -4.55
156.795 -4.55
156.8224 -4.55
156.8557 -4.55
156.8837 -4.55
156.915 -4.55
156.9444 -4.55
156.9747 -4.55
157.008 -4.55
157.0413 -4.55
157.0708 -4.55
157.1041 -4.55
157.1314 -4.55
157.1647 -4.55
157.1918 -4.55
157.22 -4.55
157.2481 -4.55
157.2765 -4.55
157.3057 -4.55
157.3391 -4.55
157.3681 -4.55
157.4008 -4.55
157.4278 -4.55
157.4605 -4.55
157.4938 -4.55
157.526 -4.55
157.5579 -4.55
157.5872 -4.55
157.6151 -4.55
157.6484 -4.55
157.6776 -4.55
157.7071 -4.55
157.7349 -4.55
157.7632 -4.55
157.7965 -4.55
157.8253 -4.55
157.8586 -4.55
157.8891 -4.55
157.9224 -4.55
157.9557 -4.55
157.9845 -4.55
158.0156 -4.55
158.0437 -4.55
158.0744 -4.55
158.1077 -4.55
158.1361 -4.55
158.167 -4.55
158.2003 -4.55
158.2274 -4.55
158.2608 -4.55
158.2887 -4.55
158.3178 -4.55
158.3493 -4.55
158.3791 -4.55
158.4124 -4.55
158.4431 -4.55
158.4701 -4.55
158.5017 -4.55
158.535 -4.55
158.5683 -4.55
158.5956 -4.55
158.6277 -4.55
158.6589 -4.55
158.6885 -4.55
158.7218 -4.55
158.7499 -4.55
158.777 -4.55
158.8075 -4.55
158.8374 -4.55
158.8669 -4.55
158.9002 -4.55
158.9326 -4.55
158.9646 -4.55
158.9933 -4.55
159.0232 -4.55
159.0565 -4.55
159.0836 -4.55
159.1153 -4.55
159.1423 -4.55
159.1711 -4.55
159.2044 -4.55
159.2377 -4.55
159.2661 -4.55
159.2968 -4.55
159.3269 -4.55
159.3602 -4.55
159.387 -4.55
159.4154 -4.55
159.4443 -4.55
159.4735 -4.55
159.5069 -4.55
159.5382 -4.55
159.5648 -4.55
159.5926 -4.55
159.6206 -4.55
159.6539 -4.55
159.6836 -4.55
159.7111 -4.55
159.74 -4.55
159.769 -4.55
159.8024 -4.55
159.8317 -4.55
159.8631 -4.55
159.8911 -4.55
159.9244 -4.55
159.9577 -4.55
159.9854 -4.55
160.0166 -4.55
160.0438 -4.55
160.0727 -4.55
160.1061 -4.55
160.1357 -4.55
160.1672 -4.55
160.1963 -4.55
160.225 -4.55
160.2584 -4.55
160.2891 -4.55
160.3219 -4.55
160.3484 -4.55
160.3796 -4.55
160.4129 -4.55
160.4438 -4.55
160.4771 -4.55
160.5066 -4.55
160.5399 -4.55
160.5732 -4.55
160.601 -4.55
160.6311 -4.55
160.6589 -4.55
160.6881 -4.55
160.7214 -4.55
160.7539 -4.55
160.781 -4.55
160.8131 -4.55
160.8407 -4.55
160.874 -4.55
160.9073 -4.55
160.9358 -4.55
160.9644 -4.55
160.9943 -4.55
161.0276 -4.55
161.0596 -4.55
161.0891 -4.55
161.1198 -4.55
161.148 -4.55
161.1813 -4.55
161.2096 -4.55
161.2386 -4.55
161.2705 -4.55
161.2994 -4.55
161.3327 -4.55
161.3641 -4.55
161.3974 -4.55
161.4253 -4.55
161.4526 -4.55
161.4859 -4.55
161.5133 -4.55
161.5419 -4.55
161.5707 -4.55
161.6003 -4.55
161.6336 -4.55
161.6637 -4.55
161.6961 -4.55
161.7245 -4.55
161.754 -4.55
161.7873 -4.55
161.8143 -4.55
161.842 -4.55
161.8693 -4.55
161.8983 -4.55
161.9256 -4.55
161.959 -4.55
161.9867 -4.55
162.0149 -4.55
162.0478 -4.55
162.0782 -4.55
162.1116 -4.55
162.142 -4.55
162.1717 -4.55
162.202 -4.55
162.2311 -4.55
162.2644 -4.55
162.2977 -4.55
162.3262 -4.55
162.3531 -4.55
162.3864 -4.55
162.4197 -4.55
162.4505 -4.55
162.4821 -4.55
162.5113 -4.55
162.5379 -4.55
162.5712 -4.55
162.5995 -4.55
162.6283 -4.55
162.6586 -4.55
162.6887 -4.55
162.722 -4.55
162.7501 -4.55
162.7768 -4.55
162.8052 -4.55
162.8361 -4.55
162.8695 -4.55
162.898 -4.55
162.9314 -4.55
162.9603 -4.55
162.9901 -4.55
163.0235 -4.55
163.0536 -4.55
163.0821 -4.55
163.1112 -4.55
163.1401 -4.55
163.1735 -4.55
163.201 -4.55
163.2302 -4.55
163.2572 -4.55
163.2905 -4.55
163.3226 -4.55
163.3557 -4.55
163.3829 -4.55
163.411 -4.55
163.4397 -4.55
163.4713 -4.55
163.5046 -4.55
163.5354 -4.55
163.5675 -4.55
163.5957 -4.55
163.6231 -4.55
163.6564 -4.55
163.6857 -4.55
163.7191 -4.55
163.7503 -4.55
163.7836 -4.55
163.8169 -4.55
163.8484 -4.55
163.8785 -4.55
163.9092 -4.55
163.9398 -4.55
163.9732 -4.55
164.0031 -4.55
164.0359 -4.55
164.0628 -4.55
164.0921 -4.55
164.1254 -4.55
164.1561 -4.55
164.187 -4.55
164.2149 -4.55
164.2424 -4.55
164.2757 -4.55
164.3026 -4.55
164.3314 -4.55
164.3626 -4.55
164.3904 -4.55
164.42 -4.55
164.4533 -4.55
164.4866 -4.55
164.5179 -4.55
164.5482 -4.55
164.5815 -4.55
164.6138 -4.55
164.643 -4.55
164.6705 -4.55
164.6994 -4.55
164.7269 -4.55
164.7554 -4.55
164.7887 -4.55
164.8194 -4.55
164.8513 -4.55
164.8799 -4.55
164.9094 -4.55
164.9428 -4.55
164.9728 -4.55
165.0005 -4.55
165.028 -4.55
165.0571 -4.55
165.0904 -4.55
165.1213 -4.55
165.1503 -4.55
165.1827 -4.55
165.2111 -4.55
165.2444 -4.55
165.2742 -4.55
165.3051 -4.55
165.3351 -4.55
165.3647 -4.55
165.3981 -4.55
165.4282 -4.55
165.4572 -4.55
165.4891 -4.55
165.5177 -4.55
165.5511 -4.55
165.5788 -4.55
165.6092 -4.55
165.6378 -4.55
165.6711 -4.55
165.7045 -4.55
165.733 -4.55
165.7641 -4.55
165.7971 -4.55
165.8258 -4.55
165.8591 -4.55
165.8872 -4.55
165.9156 -4.55
165.9458 -4.55
165.9791 -4.55
166.0125 -4.55
166.0458 -4.55
166.0752 -4.55
166.1074 -4.55
166.1362 -4.55
166.1695 -4.55
166.1993 -4.55
166.2276 -4.55
166.2609 -4.55
166.2924 -4.55
166.3257 -4.55
166.3557 -4.55
166.3821 -4.55
166.4117 -4.55
166.4436 -4.55
166.4769 -4.55
166.5083 -4.55
166.5369 -4.55
166.564 -4.55
166.5971 -4.55
166.6301 -4.55
166.6635 -4.55
166.6911 -4.55
166.7244 -4.55
166.7526 -4.55
166.7859 -4.55
166.8156 -4.55
166.8483 -4.55
166.8758 -4.55
166.9039 -4.55
166.9373 -4.55
166.9654 -4.55
166.9926 -4.55
167.0223 -4.55
167.0523 -4.55
167.0856 -4.55
167.1133 -4.55
167.146 -4.55
167.1744 -4.55
167.203 -4.55
167.2363 -4.55
167.2653 -4.55
167.2985 -4.55
167.3318 -4.55
167.3592 -4.55
167.3925 -4.55
167.4202 -4.55
167.4519 -4.55
167.4798 -4.55
167.5132 -4.55
167.5465 -4.55
167.5798 -4.55
167.6076 -4.55
167.6361 -4.55
167.6634 -4.55
167.6967 -4.55
167.7268 -4.55
167.7547 -4.55
167.7822 -4.55
167.8134 -4.55
167.8467 -4.55
167.8768 -4.55
167.9054 -4.55
167.9376 -4.55
167.9661 -4.55
167.9994 -4.55
168.0295 -4.55
168.0607 -4.55
168.0894 -4.55
168.1223 -4.55
168.1557 -4.55
168.1861 -4.55
168.2135 -4.55
168.245 -4.55
168.2771 -4.55
168.3105 -4.55
168.3377 -4.55
168.3664 -4.55
168.3942 -4.55
168.4234 -4.55
168.4567 -4.55
168.4849 -4.55
168.5114 -4.55
168.5405 -4.55
168.5684 -4.55
168.6017 -4.55
168.635 -4.55
168.6634 -4.55
168.6915 -4.55
168.7207 -4.55
168.754 -4.55
168.7874 -4.55
168.8164 -4.55
168.8476 -4.55
168.8766 -4.55
168.91 -4.55
168.9386 -4.55
168.9719 -4.55
169.0022 -4.55
169.0314 -4.55
169.0647 -4.55
169.0954 -4.55
169.124 -4.55
169.1523 -4.55
169.1798 -4.55
169.2131 -4.55
169.2405 -4.55
169.27 -4.55
169.3013 -4.55
169.3326 -4.55
169.366 -4.55
169.3993 -4.55
169.4306 -4.55
169.4616 -4.55
169.4891 -4.55
169.5224 -4.55
169.5505 -4.55
169.5803 -4.55
169.6128 -4.55
169.6461 -4.55
169.6795 -4.55
169.7086 -4.55
169.738 -4.55
169.7677 -4.55
169.7955 -4.55
169.8288 -4.55
169.8602 -4.55
169.8917 -4.55
169.9215 -4.55
169.9498 -4.55
169.9832 -4.55
170.0128 -4.55
170.0411 -4.55
170.0744 -4.55
170.1026 -4.55
170.1359 -4.55
170.1693 -4.55
170.199 -4.55
170.2323 -4.55
170.2606 -4.55
170.294 -4.55
170.3226 -4.55
170.3528 -4.55
170.3806 -4.55
170.4104 -4.55
170.4385 -4.55
170.4719 -4.55
170.501 -4.55
170.5275 -4.55
170.5561 -4.55
170.5894 -4.55
170.6228 -4.55
170.6499 -4.55
170.6817 -4.55
170.711 -4.55
170.7419 -4.55
170.7748 -4.55
170.8082 -4.55
170.8412 -4.55
170.8719 -4.55
170.9021 -4.55
170.9354 -4.55
170.9664 -4.55
170.9997 -4.55
171.0289 -4.55
171.0596 -4.55
171.0929 -4.55
171.1233 -4.55
171.1555 -4.55
171.1875 -4.55
171.2148 -4.55
171.2481 -4.55
171.2768 -4.55
171.3052 -4.55
171.3333 -4.55
171.3666 -4.55
171.3988 -4.55
171.43 -4.55
171.4602 -4.55
171.4905 -4.55
171.5176 -4.55
171.551 -4.55
171.5809 -4.55
171.6111 -4.55
171.6416 -4.55
171.675 -4.55
171.7083 -4.55
171.7416 -4.55
171.775 -4.55
171.8067 -4.55
171.8369 -4.55
171.8702 -4.55
171.8976 -4.55
171.9282 -4.55
171.9593 -4.55
171.9893 -4.55
172.0227 -4.55
172.0552 -4.55
172.0818 -4.55
172.1142 -4.55
172.1425 -4.55
172.1759 -4.55
172.207 -4.55
172.2389 -4.55
172.2699 -4.55
172.2995 -4.55
172.3322 -4.55
172.3602 -4.55
172.3905 -4.55
172.4194 -4.55
172.4469 -4.55
172.4796 -4.55
172.513 -4.55
172.5446 -4.55
172.5757 -4.55
172.6067 -4.55
172.636 -4.55
172.6693 -4.55
172.6992 -4.55
172.7279 -4.55
172.755 -4.55
172.7826 -4.55
172.8109 -4.55
172.8443 -4.55
172.8776 -4.55
172.9064 -4.55
172.9339 -4.55
172.9656 -4.55
172.9982 -4.55
173.0282 -4.55
173.0558 -4.55
173.0845 -4.55
173.1129 -4.55
173.1434 -4.55
173.1767 -4.55
173.21 -4.55
173.2422 -4.55
173.2703 -4.55
173.2997 -4.55
173.333 -4.55
173.3624 -4.55
173.3914 -4.55
173.4198 -4.55
173.4492 -4.55
173.4821 -4.55
173.5105 -4.55
173.5397 -4.55
173.5681 -4.55
173.6003 -4.55
173.6336 -4.55
173.6616 -4.55
173.695 -4.55
173.7238 -4.55
173.7544 -4.55
173.7878 -4.55
173.8194 -4.55
173.8488 -4.55
173.8772 -4.55
173.9068 -4.55
173.9401 -4.55
173.9734 -4.55
174.0015 -4.55
174.0309 -4.55
174.0621 -4.55
174.0946 -4.55
174.1248 -4.55
174.1582 -4.55
174.1875 -4.55
174.217 -4.55
174.2504 -4.55
174.2783 -4.55
174.3089 -4.55
174.3363 -4.55
174.3692 -4.55
174.4025 -4.55
174.4331 -4.55
174.4646 -4.55
174.498 -4.55
174.5267 -4.55
174.56 -4.55
174.5869 -4.55
174.6163 -4.55
174.6443 -4.55
174.6776 -4.55
174.711 -4.55
174.7397 -4.55
174.7678 -4.55
174.7971 -4.55
174.8304 -4.55
174.8638 -4.55
174.8928 -4.55
174.9238 -4.55
174.9508 -4.55
174.9841 -4.55
175.0163 -4.55
175.0477 -4.55
175.0747 -4.55
175.1058 -4.55
175.1341 -4.55
175.1674 -4.55
175.1973 -4.55
175.226 -4.55
175.2538 -4.55
175.2818 -4.55
175.3107 -4.55
175.3441 -4.55
175.3726 -4.55
175.4025 -4.55
175.4354 -4.55
175.4644 -4.55
175.4977 -4.55
175.5274 -4.55
175.5608 -4.55
175.5931 -4.55
175.621 -4.55
175.6543 -4.55
175.6818 -4.55
175.7101 -4.55
175.7393 -4.55
175.77 -4.55
175.8033 -4.55
175.8354 -4.55
175.8638 -4.55
175.8966 -4.55
175.9299 -4.55
175.9632 -4.55
175.9925 -4.55
176.0205 -4.55
176.0501 -4.55
176.0806 -4.55
176.1139 -4.55
176.1468 -4.55
176.1752 -4.55
176.2061 -4.55
176.2394 -4.55
176.2728 -4.55
176.3001 -4.55
176.3335 -4.55
176.3614 -4.55
176.3915 -4.55
176.4247 -4.55
176.4541 -4.55
176.4872 -4.8
176.5161 -4.8
176.5457 -4.8
176.579 -4.8
176.6097 -4.8
176.638 -4.8
176.6654 -4.8
176.6954 -4.8
176.7287 -4.8
176.762 -4.8
176.7889 -4.8
176.8175 -4.8
176.8448 -4.8
176.8781 -4.8
176.9073 -4.8
176.9406 -4.8
176.969 -4.8
177.0024 -4.8
177.0357 -4.8
177.069 -4.8
177.1013 -4.8
177.1288 -4.8
177.157 -4.8
177.1903 -4.8
177.2237 -4.8
177.2556 -4.8
177.2875 -4.8
177.3197 -4.8
177.3531 -4.8
177.3864 -4.8
177.4134 -4.8
177.4453 -4.8
177.4769 -4.8
177.5103 -4.8
177.5374 -4.8
177.567 -4.8
177.5966 -4.8
177.6263 -4.8
177.6596 -4.8
177.6929 -4.8
177.7193 -4.8
177.7477 -4.8
177.776 -4.8
177.8093 -4.8
177.8375 -4.8
177.8663 -4.8
177.8959 -4.8
177.9292 -4.8
177.9625 -4.8
177.9959 -4.8
178.0227 -4.8
178.0561 -4.8
178.085 -4.8
178.1183 -4.8
178.1451 -4.8
178.1736 -4.8
178.2049 -4.8
178.2382 -4.8
178.2712 -4.8
178.2997 -4.8
178.3287 -4.8
178.362 -4.8
178.3885 -4.8
178.4218 -4.8
178.45 -4.8
178.4804 -4.8
178.5137 -4.55
178.547 -4.55
178.5804 -4.55
178.6106 -4.55
178.6419 -4.55
178.671 -4.55
178.699 -4.55
178.7323 -4.55
178.76 -4.55
178.7899 -4.55
178.8218 -4.55
178.8501 -4.55
178.8825 -4.55
178.9147 -4.55
178.9427 -4.55
178.9717 -4.55
179.0008 -4.55
179.0341 -4.55
179.0612 -4.55
179.0904 -4.55
179.1198 -4.55
179.1497 -4.55
179.183 -4.55
179.2121 -4.55
179.2393 -4.55
179.2686 -4.55
179.2957 -4.55
179.324 -4.55
179.3573 -4.55
179.3876 -4.55
179.4185 -4.55
179.4519 -4.55
179.4801 -4.55
179.5134 -4.55
179.542 -4.55
179.5717 -4.55
179.6009 -4.55
179.6337 -4.55
179.6671 -4.55
179.6972 -4.55
179.7273 -4.55
179.7573 -4.55
179.7882 -4.55
179.8215 -4.55
179.8494 -4.55
179.8775 -4.55
179.9066 -4.55
179.9368 -4.55
179.9698 -4.55
179.9983 -4.55
180.0262 -4.55
180.0552 -4.55
180.0825 -4.55
180.111 -4.55
180.1443 -4.55
180.1777 -4.55
180.211 -4.55
180.2389 -4.55
180.2673 -4.55
180.3007 -4.55
180.3321 -4.55
180.3639 -4.55
180.3972 -4.55
180.4264 -4.55
180.4598 -4.55
180.4895 -4.55
180.5186 -4.55
180.5468 -4.55
180.5773 -4.55
180.6106 -4.55
180.6398 -4.55
180.6689 -4.55
180.7009 -4.55
180.7328 -4.55
180.7661 -4.55
180.7971 -4.55
180.8263 -4.55
180.8551 -4.55
180.8868 -4.55
180.9202 -4.55
180.9535 -4.55
180.9818 -4.55
181.0128 -4.55
181.0421 -4.55
181.0755 -4.55
181.1043 -4.55
181.1349 -4.55
181.1639 -4.55
181.1949 -4.55
181.2282 -4.55
181.2558 -4.55
181.2866 -4.55
181.3134 -4.55
181.3429 -4.55
181.3739 -4.55
181.4072 -4.55
181.4382 -4.55
181.4708 -4.55
181.5002 -4.55
181.5309 -4.55
181.5643 -4.55
181.592 -4.55
181.6216 -4.55
181.6509 -4.55
181.6797 -4.55
181.7081 -4.55
181.7402 -4.55
181.7687 -4.55
181.8008 -4.55
181.829 -4.55
181.8611 -4.55
181.8944 -4.55
181.9263 -4.55
181.9546 -4.55
181.9828 -4.55
182.0152 -4.55
182.0485 -4.55
182.0796 -4.55
182.1119 -4.55
182.1442 -4.55
182.1738 -4.55
182.2071 -4.55
182.2389 -4.55
182.2718 -4.55
182.3026 -4.55
182.3326 -4.55
182.3659 -4.55
182.3956 -4.55
182.4241 -4.55
182.4557 -4.55
182.4867 -4.55
182.52 -4.55
182.5516 -4.55
182.5824 -4.55
182.6151 -4.55
182.6485 -4.55
182.6818 -4.55
182.7106 -4.55
182.7369 -4.55
182.768 -4.55
182.7952 -4.55
182.8235 -4.55
182.8566 -4.55
182.8869 -4.55
182.9169 -4.55
182.9478 -4.55
182.9781 -4.55
183.0114 -4.55
183.0444 -4.55
183.0777 -4.55
183.1101 -4.55
183.1402 -4.55
183.1736 -4.55
183.2042 -4.55
183.2376 -4.55
183.2658 -4.55
183.298 -4.55
183.3314 -4.55
183.3647 -4.55
183.3961 -4.55
183.4256 -4.55
183.459 -4.55
183.4923 -4.55
183.5256 -4.55
183.5517 -4.55
183.5799 -4.55
183.6077 -4.55
183.641 -4.55
183.6691 -4.55
183.6992 -4.55
183.7325 -4.55
183.7658 -4.55
183.7992 -4.55
183.8282 -4.55
183.8588 -4.55
183.8877 -4.55
183.9167 -4.55
183.9501 -4.55
183.9795 -4.55
184.0129 -4.55
184.0399 -4.55
184.0732 -4.55
184.1066 -4.55
184.1399 -4.55
184.1725 -4.55
184.2047 -4.55
184.234 -4.55
184.2673 -4.55
184.3002 -4.55
184.3309 -4.55
184.3595 -4.55
184.3891 -4.55
184.4225 -4.55
184.4505 -4.55
184.4786 -4.55
184.5064 -4.55
184.5344 -4.55
184.5648 -4.55
184.5981 -4.55
184.6277 -4.55
184.659 -4.55
184.6904 -4.55
184.7183 -4.55
184.7517 -4.55
184.7789 -4.55
184.8122 -4.55
184.8399 -4.55
184.8721 -4.55
184.9055 -4.55
184.934 -4.55
184.9612 -4.55
184.9915 -4.55
185.0224 -4.55
185.0557 -4.55
185.0836 -4.55
185.1134 -4.55
185.1409 -4.55
185.1705 -4.55
185.1989 -4.55
185.2322 -4.55
185.2655 -4.55
185.2957 -4.55
185.3255 -4.55
185.3588 -4.55
185.3921 -4.55
185.4203 -4.55
185.4478 -4.55
185.476 -4.55
185.5028 -4.55
185.5321 -4.55
185.5654 -4.55
185.5988 -4.55
185.627 -4.55
185.6594 -4.55
185.6884 -4.55
185.7217 -4.55
185.7489 -4.55
185.7779 -4.55
185.8049 -4.55
185.8335 -4.55
185.8663 -4.55
185.8972 -4.55
185.9253 -4.55
185.9563 -4.55
185.9846 -4.55
186.018 -4.55
186.0499 -4.55
186.0782 -4.55
186.106 -4.55
186.1363 -4.55
186.1697 -4.55
186.1983 -4.55
186.2273 -4.55
186.2606 -4.55
186.2891 -4.55
186.3225 -4.55
186.3516 -4.55
186.3801 -4.55
186.4073 -4.55
186.4349 -4.55
186.4631 -4.55
186.4964 -4.55
186.5249 -4.55
186.5564 -4.55
186.5883 -4.55
186.6194 -4.55
186.6528 -4.55
186.6821 -4.55
186.7095 -4.55
186.7381 -4.55
186.7651 -4.55
186.7953 -4.55
186.8286 -4.55
186.862 -4.55
186.8934 -4.55
186.9232 -4.55
186.952 -4.55
186.9853 -4.55
187.0128 -4.55
187.0414 -4.55
187.07 -4.55
187.0995 -4.55
187.1277 -4.55
187.161 -4.55
187.1884 -4.55
187.2201 -4.55
187.2474 -4.55
187.2784 -4.55
187.3115 -4.55
187.3449 -4.55
187.3755 -4.55
187.4088 -4.55
187.4375 -4.55
187.4708 -4.55
187.4991 -4.55
187.5279 -4.55
187.5557 -4.55
187.589 -4.55
187.6224 -4.55
187.6557 -4.55
187.6827 -4.55
187.7118 -4.55
187.74 -4.55
187.7733 -4.55
187.8025 -4.55
187.8303 -4.55
187.8615 -4.55
187.8903 -4.55
187.9237 -4.55
187.952 -4.55
187.9832 -4.55
188.0136 -4.55
188.0435 -4.55
188.0768 -4.55
188.1094 -4.55
188.1427 -4.55
188.17 -4.55
188.2007 -4.55
188.234 -4.55
188.2626 -4.55
188.2901 -4.55
188.32 -4.55
188.3533 -4.55
188.3866 -4.55
188.4187 -4.55
188.4478 -4.55
188.4777 -4.55
188.5065 -4.55
188.539 -4.55
188.5723 -4.55
188.6015 -4.55
188.6306 -4.55
188.6579 -4.55
188.6913 -4.55
188.7212 -4.55
188.7544 -4.55
188.7837 -4.55
188.8129 -4.55
188.8462 -4.55
188.8751 -4.55
188.9045 -4.55
188.9332 -4.55
188.9623 -4.55
188.9956 -4.55
189.0273 -4.55
189.0571 -4.55
189.0867 -4.55
189.1166 -4.55
189.1495 -4.55
189.1828 -4.55
189.2099 -4.55
189.2405 -4.55
189.2679 -4.55
189.3012 -4.55
189.3292 -4.55
189.3578 -4.55
189.3853 -4.55
189.4165 -4.55
189.4499 -4.55
189.4782 -4.55
189.507 -4.55
189.5403 -4.55
189.5685 -4.55
189.6018 -4.55
189.6352 -4.55
189.6654 -4.55
189.6987 -4.55
189.7292 -4.55
189.7625 -4.55
189.7914 -4.55
189.8186 -4.55
189.8466 -4.55
189.8747 -4.55
189.9059 -4.55
189.9393 -4.55
189.968 -4.55
189.9961 -4.55
190.0254 -4.55
190.0588 -4.55
190.0921 -4.55
190.1188 -4.55
190.1481 -4.55
190.1801 -4.55
190.2095 -4.55
190.2429 -4.55
190.2715 -4.55
190.2991 -4.55
190.3277 -4.55
190.3554 -4.55
190.3887 -4.55
190.4169 -4.55
190.4485 -4.55
190.4754 -4.55
190.5073 -4.55
190.5406 -4.55
190.5739 -4.55
190.6072 -4.55
190.6405 -4.55
190.6684 -4.55
190.7017 -4.55
190.7302 -4.55
190.7585 -4.55
190.7886 -4.55
190.8175 -4.55
190.8508 -4.55
190.8802 -4.55
190.9117 -4.55
190.9398 -4.55
190.9704 -4.55
191.0038 -4.55
191.0307 -4.55
191.0589 -4.55
191.0878 -4.55
191.1165 -4.55
191.1499 -4.55
191.1832 -4.55
191.2165 -4.55
191.2459 -4.55
191.2741 -4.55
191.3066 -4.55
191.34 -4.55
191.3681 -4.55
191.3984 -4.55
191.429 -4.55
191.4555 -4.55
191.4888 -4.55
191.5183 -4.55
191.5517 -4.55
191.5812 -4.55
191.6146 -4.55
191.6469 -4.55
191.6766 -4.55
191.709 -4.55
191.7368 -4.55
191.7653 -4.55
191.7986 -4.55
191.8272 -4.55
191.8605 -4.55
191.8929 -4.55
191.9236 -4.55
191.9569 -4.55
191.9867 -4.55
192.0152 -4.55
192.0445 -4.55
192.0712 -4.55
192.1045 -4.55
192.1353 -4.55
192.1641 -4.55
192.1936 -4.55
192.2233 -4.55
192.2566 -4.55
192.29 -4.55
192.3203 -4.55
192.3482 -4.55
192.3754 -4.55
192.4084 -4.55
192.4355 -4.55
192.4689 -4.55
192.4987 -4.55
192.5286 -4.55
192.5619 -4.55
192.5911 -4.55
192.6178 -4.55
192.6503 -4.35
192.6807 -4.35
192.7141 -4.35
192.7466 -4.35
192.7799 -4.35
192.8111 -4.35
192.8415 -4.35
192.8749 -4.35
192.9046 -4.35
192.9379 -4.35
192.9677 -4.35
192.9967 -4.35
193.03 -4.35
193.0583 -4.35
193.0905 -4.35
193.1172 -4.35
193.1474 -4.35
193.1807 -4.35
193.2105 -4.35
193.2376 -4.35
193.2709 -4.35
193.2999 -4.35
193.3333 -4.35
193.3627 -4.35
193.391 -4.35
193.4221 -4.35
193.4522 -4.35
193.4855 -4.35
193.5135 -4.35
193.5428 -4.35
193.5736 -4.35
193.6003 -4.35
193.6329 -4.35
193.6663 -4.35
193.6954 -4.35
193.7229 -4.35
193.7516 -4.35
193.7849 -4.35
193.8182 -4.35
193.8508 -4.35
193.8841 -4.35
193.9113 -4.35
193.9436 -4.35
193.9764 -4.35
194.0097 -4.35
194.041 -4.35
194.0685 -4.35
194.0962 -4.35
194.1296 -4.35
194.1587 -4.35
194.1896 -4.35
194.2222 -4.35
194.2507 -4.35
194.284 -4.35
194.3163 -4.35
194.3458 -4.35
194.3765 -4.35
194.4054 -4.35
194.4388 -4.35
194.4671 -4.35
194.4952 -4.35
194.5218 -4.35
194.5543 -4.35
194.5876 -4.35
194.6158 -4.35
194.6431 -4.35
194.6752 -4.35
194.7018 -4.35
194.7352 -4.35
194.7635 -4.35
194.7936 -4.35
194.8204 -4.35
194.8493 -4.35
194.8826 -4.35
194.9121 -4.35
194.9396 -4.35
194.9729 -4.35
195.0018 -4.35
195.0351 -4.35
195.0684 -4.35
195.0977 -4.35
195.1261 -4.35
195.1564 -4.35
195.1897 -4.35
195.22 -4.35
195.2478 -4.35
195.2761 -4.35
195.3047 -4.35
195.338 -4.35
195.3713 -4.35
195.4047 -4.35
195.4324 -4.35
195.4627 -4.35
195.4957 -4.35
195.5247 -4.35
195.5537 -4.35
195.5821 -4.35
195.6121 -4.35
195.6413 -4.35
195.6747 -4.35
195.7051 -4.35
195.7384 -4.35
195.7662 -4.35
195.7986 -4.35
195.8319 -4.35
195.8595 -4.35
195.8875 -4.35
195.914 -4.35
195.9466 -4.35
195.9799 -4.35
196.0117 -4.35
196.0444 -4.35
196.0728 -4.35
196.1046 -4.35
196.138 -4.35
196.1657 -4.35
196.1936 -4.35
196.2216 -4.35
196.2496 -4.35
196.2771 -4.35
196.3104 -4.35
196.3404 -4.35
196.3729 -4.35
196.4056 -4.35
196.4377 -4.35
196.4711 -4.35
196.5044 -4.35
196.5365 -4.35
196.5686 -4.35
196.5955 -4.35
196.6288 -4.35
196.6573 -4.35
196.6896 -4.35
196.7192 -4.35
196.7517 -4.35
196.7851 -4.35
196.8151 -4.35
196.8426 -4.35
196.8706 -4.35
196.9004 -4.35
196.9337 -4.35
196.9648 -4.35
196.9977 -4.35
197.0266 -4.35
197.0563 -4.35
197.0897 -4.35
197.123 -4.35
197.1519 -4.35
197.1807 -4.35
197.2084 -4.35
197.2418 -4.35
197.2715 -4.35
197.3025 -4.35
197.3307 -4.35
197.36 -4.35
197.3933 -4.35
197.4219 -4.35
197.4498 -4.35
197.4786 -4.35
197.5118 -4.35
197.5451 -4.35
197.5766 -4.35
197.6074 -4.35
197.6404 -4.35
197.6696 -4.35
197.7025 -4.35
197.7331 -4.35
197.7609 -4.35
197.7915 -4.35
197.8192 -4.35
197.8482 -4.35
197.8816 -4.35
197.9132 -4.35
197.9419 -4.35
197.9731 -4.35
198.0012 -4.35
198.0345 -4.35
198.0669 -4.35
198.0959 -4.35
198.1244 -4.35
198.1577 -4.35
198.1911 -4.35
198.2202 -4.35
198.2498 -4.35
198.2831 -4.35
198.312 -4.35
198.3453 -4.35
198.3731 -4.35
198.4017 -4.35
198.4309 -4.35
198.4592 -4.35
198.4879 -4.35
198.5212 -4.35
198.55 -4.35
198.5825 -4.35
198.6158 -4.35
198.646 -4.35
198.6781 -4.35
198.7065 -4.35
198.7348 -4.35
198.7643 -4.35
198.7976 -4.35
198.831 -4.35
198.8592 -4.35
198.8889 -4.35
198.9158 -4.35
198.9472 -4.35
198.9805 -4.35
199.0104 -4.35
199.0399 -4.35
199.0683 -4.35
199.1009 -4.35
199.1343 -4.35
199.1676 -4.35
199.1977 -4.35
199.2253 -4.35
199.2551 -4.35
199.2884 -4.35
199.3217 -4.35
199.3495 -4.35
199.3827 -4.35
199.4129 -4.35
199.4463 -4.35
199.4739 -4.35
199.5069 -4.35
199.5341 -4.35
199.5669 -4.35
199.6003 -4.35
199.6296 -4.35
199.6598 -4.35
199.6908 -4.35
199.7182 -4.35
199.7515 -4.35
199.7849 -4.35
199.8173 -4.35
199.846 -4.35
199.8766 -4.35
199.91 -4.35
199.9433 -4.35
199.97 -4.35
200.0006 -4.35
200.032 -4.35
200.0653 -4.35
200.0924 -4.35
200.1217 -4.35
200.1494 -4.35
200.1785 -4.35
200.2096 -4.35
200.2429 -4.35
200.2723 -4.35
200.3029 -4.35
200.3338 -4.35
200.3661 -4.35
200.3994 -4.35
200.4291 -4.35
200.4616 -4.35
200.4895 -4.35
200.5196 -4.35
200.5529 -4.35
200.5804 -4.35
200.6098 -4.35
200.6413 -4.35
200.6746 -4.35
200.7079 -4.35
200.739 -4.35
200.7674 -4.35
200.7968 -4.35
200.8245 -4.35
200.8578 -4.35
200.8857 -4.35
200.917 -4.35
200.9481 -4.35
200.9789 -4.35
201.0122 -4.35
201.0447 -4.35
201.0731 -4.35
201.1015 -4.35
201.1301 -4.35
201.1634 -4.35
201.1906 -4.35
201.2193 -4.35
201.2463 -4.35
201.2797 -4.35
201.313 -4.35
201.3418 -4.35
201.368 -4.35
201.4013 -4.35
201.4308 -4.35
201.4642 -4.35
201.4908 -4.35
201.5199 -4.35
201.5487 -4.35
201.582 -4.35
201.6153 -4.35
201.6434 -4.35
201.6724 -4.35
201.7013 -4.35
201.7343 -4.35
201.7677 -4.35
201.7954 -4.35
201.8236 -4.35
201.8503 -4.35
201.8836 -4.35
201.9169 -4.35
201.9477 -4.35
201.9795 -4.35
202.0121 -4.35
202.0454 -4.35
202.0788 -4.35
202.1061 -4.35
202.1361 -4.35
202.1641 -4.35
202.1922 -4.35
202.2216 -4.35
202.255 -4.35
202.2838 -4.35
202.3171 -4.35
202.3433 -4.35
202.3742 -4.35
202.4076 -4.35
202.4351 -4.35
202.4629 -4.35
202.4961 -4.35
202.5294 -4.35
202.5627 -4.35
202.5961 -4.35
202.6278 -4.35
202.6611 -4.35
202.6913 -4.35
202.7246 -4.35
202.7528 -4.35
202.7798 -4.35
202.8131 -4.35
202.8408 -4.35
202.8741 -4.35
202.901 -4.35
202.9343 -4.35
202.9627 -4.35
202.9922 -4.35
203.0256 -4.35
203.0565 -4.35
203.0898 -4.35
203.119 -4.35
203.15 -4.35
203.1833 -4.35
203.2106 -4.35
203.2393 -4.35
203.2675 -4.35
203.2972 -4.35
203.3305 -4.35
203.3606 -4.35
203.3917 -4.35
203.4251 -4.35
203.4523 -4.35
203.4857 -4.35
203.5134 -4.35
203.5441 -4.35
203.5739 -4.35
203.6032 -4.35
203.6365 -4.35
203.6678 -4.35
203.6973 -4.35
203.7293 -4.35
203.7574 -4.35
203.7908 -4.35
203.8241 -4.35
203.8526 -4.35
203.8795 -4.35
203.9098 -4.35
203.9432 -4.35
203.9715 -4.35
203.9988 -4.35
204.0273 -4.35
204.0547 -4.35
204.088 -4.35
204.1213 -4.35
204.1547 -4.35
204.1822 -4.35
204.2125 -4.35
204.2408 -4.35
204.2741 -4.35
204.3031 -4.35
204.3322 -4.35
204.362 -4.35
204.3916 -4.35
204.4236 -4.35
204.4555 -4.35
204.4888 -4.35
204.5164 -4.35
204.544 -4.35
204.5773 -4.35
204.6096 -4.35
204.6401 -4.35
204.6683 -4.35
204.6969 -4.35
204.7302 -4.35
204.7636 -4.35
204.7926 -4.35
204.8224 -4.35
204.8504 -4.35
204.8838 -4.35
204.9171 -4.35
204.948 -4.35
204.9813 -4.35
205.0146 -4.35
205.0479 -4.35
205.0764 -4.35
205.1032 -4.35
205.1313 -4.35
205.159 -4.35
205.1924 -4.35
205.2257 -4.35
205.2552 -4.35
205.2862 -4.35
205.3196 -4.35
205.3529 -4.35
205.3857 -4.35
205.4124 -4.35
205.4414 -4.35
205.47 -4.35
205.5033 -4.35
205.5314 -4.35
205.561 -4.35
205.5942 -4.35
205.6231 -4.35
205.6564 -4.35
205.688 -4.35
205.7167 -4.35
205.75 -4.35
205.7815 -4.35
205.8148 -4.35
205.8425 -4.35
205.8709 -4.35
205.898 -4.35
205.9269 -4.35
205.9603 -4.35
205.9926 -4.35
206.0214 -4.35
206.0511 -4.35
206.0838 -4.35
206.1172 -4.35
206.1437 -4.35
206.1729 -4.35
206.2038 -4.35
206.2358 -4.35
206.2691 -4.35
206.3019 -4.35
206.3311 -4.35
206.3601 -4.35
206.3879 -4.35
206.4212 -4.35
206.4487 -4.35
206.482 -4.35
206.5097 -4.35
206.5379 -4.35
206.5712 -4.35
206.6003 -4.35
206.6279 -4.35
206.661 -4.35
206.6895 -4.35
206.7228 -4.35
206.7524 -4.35
206.782 -4.15
206.8102 -4.15
206.8436 -3.9
206.8769 -3.7
206.9059 -3.7
206.9353 -3.7
206.9642 -3.7
206.9917 -3.7
207.0236 -3.7
207.0564 -3.7
207.0897 -3.7
207.1231 -3.7
207.153 -3.7
207.1824 -3.7
207.2158 -3.7
207.2472 -3.7
207.2786 -3.7
207.3108 -3.7
207.3402 -3.7
207.3735 -3.7
207.4019 -3.7
207.431 -3.7
207.4604 -3.7
207.4927 -3.7
207.526 -3.7
207.555 -3.7
207.5845 -3.7
207.6167 -3.7
207.6444 -3.7
207.6768 -3.7
207.7049 -3.7
207.736 -3.7
207.7637 -3.7
207.794 -3.7
207.8252 -3.7
207.8585 -3.7
207.8877 -3.7
207.9164 -3.7
207.9497 -3.7
207.9817 -3.7
208.0151 -3.7
208.0475 -3.7
208.0771 -3.7
208.1049 -3.7
208.1376 -3.7
208.1709 -3.7
208.1997 -3.7
208.2279 -3.7
208.2593 -3.7
208.2866 -3.7
208.32 -3.7
208.347 -3.7
208.3759 -3.7
208.403 -3.7
208.4364 -3.7
208.4697 -3.7
208.5003 -3.7
208.5277 -3.7
208.5579 -3.7
208.5866 -3.7
208.6199 -3.7
208.6484 -3.7
208.6815 -3.7
208.7089 -3.7
208.7403 -3.7
208.7736 -3.7
208.8013 -3.7
208.8289 -3.7
208.8622 -3.7
208.8924 -3.7
208.9258 -3.7
208.9547 -3.7
208.9833 -3.7
209.016 -3.7
209.0447 -3.7
209.078 -3.7
209.1077 -3.7
209.1352 -3.7
209.1651 -3.7
209.1957 -3.7
209.229 -3.7
209.2571 -3.7
209.2898 -3.7
209.3184 -3.7
209.3474 -3.7
209.3808 -3.7
209.4141 -3.7
209.4434 -3.7
209.4762 -3.7
209.5034 -3.7
209.5368 -3.7
209.5684 -3.7
209.6003 -3.7
209.6297 -3.7
209.6593 -3.7
209.6927 -3.7
209.7234 -3.7
209.7509 -3.7
209.7812 -3.7
209.8127 -3.7
209.846 -3.7
209.8793 -3.7
209.9127 -3.7
209.943 -3.7
209.9725 -3.7
210.0058 -3.7
210.0367 -3.7
210.0651 -3.7
210.0939 -3.7
210.1229 -3.7
210.1563 -3.7
210.1832 -3.7
210.2165 -3.7
210.244 -3.7
210.2742 -3.7
210.3075 -3.7
210.3389 -3.7
210.3683 -3.7
210.3969 -3.7
210.429 -3.7
210.4624 -3.7
210.493 -3.7
210.5226 -3.7
210.5502 -3.7
210.5836 -3.7
210.6168 -3.7
210.6451 -3.7
210.673 -3.7
210.7057 -3.7
210.7363 -3.7
210.7697 -3.7
210.7993 -3.7
210.8313 -3.7
210.8607 -3.7
210.8903 -3.7
210.9236 -3.7
210.9566 -3.7
210.985 -3.7
211.0159 -3.7
211.0458 -3.7
211.0791 -3.7
211.1087 -3.7
211.142 -3.7
211.1701 -3.7
211.1995 -3.7
211.2328 -3.7
211.2614 -3.7
211.289 -3.7
211.3215 -3.7
211.3521 -3.7
211.3854 -3.7
211.4155 -3.7
211.4488 -3.7
211.4801 -3.7
211.5117 -3.7
211.5451 -3.7
211.577 -3.7
211.6051 -3.7
211.6373 -3.7
211.6671 -3.7
211.7005 -3.7
211.7312 -3.7
211.7591 -3.7
211.7861 -3.7
211.8187 -3.7
211.8521 -3.7
211.8813 -3.7
211.9083 -3.7
211.9416 -3.7
211.9691 -3.7
212.0025 -3.7
212.0318 -3.7
212.0607 -3.7
212.088 -3.7
212.1172 -3.7
212.1506 -3.7
212.1806 -3.7
212.2089 -3.7
212.2423 -3.7
212.2722 -3.7
212.3056 -3.7
212.3325 -3.7
212.3645 -3.7
212.3969 -3.7
212.4271 -3.7
212.4603 -3.7
212.4886 -3.7
212.5155 -3.7
212.5456 -3.7
212.578 -3.7
212.6114 -3.7
212.6396 -3.7
212.6729 -3.7
212.6996 -3.7
212.7284 -3.7
212.7614 -3.7
212.7897 -3.7
212.817 -3.7
212.8498 -3.7
212.8772 -3.7
212.9059 -3.7
212.9392 -3.7
212.9724 -3.7
213.0015 -3.7
213.0321 -3.7
213.0609 -3.7
213.0942 -3.45
213.1233 -3.05
213.1534 -3.05
213.1848 -2.4
213.2134 -2.4
213.246 -1.5
213.2744 -0.85
213.3016 -0.85
213.3299 -0.65
213.3628 -0.65
213.3961 -0.65
213.4295 -0.65
213.4628 -0.65
213.49 -0.65
213.5233 -0.85
213.5508 -0.85
213.5841 -1.5
213.6174 -2.15
213.65 -2.15
213.6832 -2.6
213.7165 -2.8
213.7498 -2.8
213.7828 -2.8
213.8095 -2.8
213.8379 -2.8
213.8655 -2.8
213.8951 -2.8
213.9285 -2.8
213.9618 -2.8
213.9906 -2.8
214.0217 -2.8
214.0527 -2.8
214.086 -2.8
214.1185 -2.8
214.1487 -2.8
214.1777 -2.8
214.2078 -2.8
214.2411 -2.8
214.2745 -2.8
214.3077 -2.6
214.3356 -2.6
214.3651 -2.4
214.3984 -2.15
214.4294 -2.15
214.4579 -2.15
214.4883 -2.15
214.5182 -2.15
214.5515 -2.15
214.582 -2.15
214.6146 -2.15
214.6479 -2.15
214.6812 -2.15
214.7146 -2.15
214.7437 -2.15
214.7748 -2.15
214.8038 -2.15
214.8338 -2.15
214.8672 -2.15
214.9005 -2.15
214.9324 -2.15
214.9632 -2.15
214.9914 -2.15
215.0247 -2.15
215.0529 -2.15
215.0863 -2.15
215.1173 -2.15
215.1506 -2.15
215.1839 -2.15
215.2134 -2.15
215.2427 -2.15
215.2714 -2.15
215.2999 -2.15
215.3333 -2.15
215.3624 -2.15
215.3933 -2.15
215.4243 -2.15
215.4549 -2.15
215.4883 -2.15
215.5164 -2.15
215.5448 -2.15
215.5763 -2.15
215.6096 -2.15
215.643 -2.15
215.6727 -2.15
215.7018 -2.15
215.7336 -2.15
215.7634 -2.15
215.7961 -2.15
215.8279 -2.15
215.8582 -2.15
215.8878 -2.15
215.92 -2.15
215.9533 -2.15
215.9844 -2.15
216.0126 -2.15
216.0402 -2.15
216.0706 -2.15
216.104 -2.15
216.1365 -2.15
216.1644 -2.15
216.1942 -2.15
216.2243 -2.15
216.2576 -2.15
216.2851 -2.15
216.3184 -2.15
216.3458 -2.15
216.3764 -2.15
216.4097 -2.15
216.441 -2.15
216.4684 -2.15
216.5017 -2.15
216.5296 -2.15
216.563 -2.15
216.591 -2.15
216.6236 -2.15
216.6508 -2.15
216.6826 -2.15
216.7159 -2.15
216.7448 -2.15
216.7735 -2.15
216.8068 -2.15
216.8356 -2.15
216.8689 -2.15
216.902 -2.15
216.9313 -2.15
216.9608 -2.15
216.9904 -2.15
217.0238 -2.15
217.0521 -2.15
217.0806 -2.15
217.1103 -2.15
217.1389 -2.15
217.1722 -2.15
217.2011 -2.15
217.2344 -2.15
217.261 -2.15
217.2898 -2.15
217.3231 -2.15
217.3543 -2.15
217.3835 -2.15
217.4131 -2.15
217.4455 -2.15
217.4788 -2.15
217.5121 -2.15
217.5416 -2.15
217.5685 -2.15
217.6018 -2.15
217.6351 -2.15
217.6661 -2.15
217.6972 -2.15
217.725 -2.15
217.7577 -2.15
217.791 -2.15
217.8203 -2.15
217.8494 -2.15
217.876 -2.15
217.9094 -2.15
217.9427 -2.15
217.976 -2.15
218.0053 -2.15
218.0357 -2.15
218.0641 -2.15
218.0974 -2.15
218.1282 -2.15
218.1615 -2.15
218.1891 -2.15
218.2211 -2.15
218.2545 -2.15
218.285 -2.15
218.312 -2.15
218.3409 -2.15
218.3704 -2.15
218.4037 -2.15
218.4362 -2.15
218.4649 -2.15
218.4982 -2.15
218.5286 -2.15
218.5619 -2.15
218.5916 -2.15
218.6193 -2.15
218.6486 -2.15
218.6802 -2.15
218.7135 -2.15
218.7424 -2.15
218.7757 -2.15
218.8022 -2.15
218.8315 -2.15
218.8648 -2.15
218.8936 -2.15
218.9227 -2.15
218.9522 -2.15
218.9818 -2.15
219.0151 -2.15
219.0444 -2.15
219.0756 -2.15
219.1045 -2.15
219.1333 -2.15
219.1664 -2.15
219.1985 -2.15
219.2295 -2.15
219.2612 -2.15
219.2946 -2.15
219.3279 -2.15
219.3605 -2.15
219.3924 -2.15
219.4203 -2.15
219.4489 -2.15
219.4822 -2.15
219.5109 -2.15
219.5426 -2.15
219.5753 -2.15
219.6033 -2.15
219.6367 -1.95
219.6687 -1.95
219.7009 -1.7
219.7274 -1.7
219.7596 -1.05
219.7929 -0.85
219.8244 -0.85
219.8535 -0.65
219.8833 -0.65
219.9129 -0.65
219.9462 -0.65
219.9739 -0.65
220.0072 -0.65
220.0341 -0.65
220.0657 -0.65
220.0986 -0.65
220.1274 -0.4
220.1576 -0.4
220.1871 -0.2
220.2179 -0.2
220.2512 -0.2
220.2844 0
220.316 0
220.3447 0.2
220.3781 0.2
220.4105 0.2
220.4387 0.2
220.4658 0.2
220.4948 0.2
220.5263 0.2
220.5591 0.2
220.5924 0.2
220.6204 0.2
220.6478 0.2
220.6766 0.2
220.7037 0.2
220.7364 0.2
220.7697 0.2
220.799 0.2
220.8274 0.2
220.8576 0.2
220.8849 0.2
220.9143 0.2
220.9476 0.2
220.9783 0.2
221.0069 0.2
221.0394 0.2
221.0728 0.2
221.1061 0.2
221.1394 0.4
221.1677 0.85
221.2001 0.85
221.229 1.3
221.2622 1.95
221.2905 1.95
221.3195 2.6
221.3487 2.6
221.3784 3.05
221.4096 3.25
221.443 3.25
221.4714 3.25
221.5032 3.25
221.5359 3.25
221.5692 3.25
221.6025 3.45
221.6314 3.45
221.6595 4.35
221.6928 5.45
221.7221 5.45
221.7554 6.75
221.7845 6.75
221.8167 8.3
221.8448 9.15
221.8782 9.15
221.9115 10.25
221.9426 11.55
221.9707 11.55
222.0009 13.1
222.0311 13.1
222.0636 14.15
222.0947 15.05
222.1281 15.05
222.1577 15.9
222.1895 16.35
222.2229 16.35
222.2557 16.8
222.2891 17.65
222.3167 17.65
222.3464 19.2
222.3797 19.2
222.4112 20.95
222.4445 22.5
222.4779 22.5
222.5108 24.45
222.5441 25.95
222.5774 27.95
222.6085 27.95
222.6408 30.35
222.6715 32.1
222.7048 32.1
222.7356 34.25
222.7636 34.25
222.7931 36
222.8218 38.2
222.8551 38.2
222.884 40.15
222.9167 40.15
222.95 41.9
222.9782 43.25
223.0116 43.25
223.0431 45
223.0741 47.15
223.1065 47.15
223.1352 49.15
223.1685 51.55
223.2018 51.55
223.2323 53.7
223.2601 53.7
223.2902 55.9
223.3236 57.65
223.3544 57.65
223.385 59.15
223.4133 61.6
223.4439 61.6
223.4772 63.55
223.5058 63.55
223.5391 66.4
223.5679 67.9
223.6005 67.9
223.6338 69.2
223.6617 69.9
223.6894 69.9
223.7228 70.1
223.7521 70.1
223.7854 70.1
223.8184 70.1
223.8516 70.1
223.8833 70.1
223.912 70.3
223.9454 70.95
223.9733 70.95
224.0005 72.05
224.0302 72.05
224.0575 73.35
224.0861 73.35
224.1195 74.45
224.1525 75.8
224.1859 75.8
224.2162 76.65
224.2455 77.3
224.2789 77.3
224.3091 78.4
224.3385 79.7
224.3669 79.7
224.3988 81.45
224.4319 81.45
224.4606 83
224.4898 84.75
224.5197 84.75
224.5531 86.25
224.5864 87.8
224.6153 87.8
224.6454 88.9
224.6737 88.9
224.7055 90.4
224.7388 92.15
224.7708 92.15
224.8011 93.7
224.8327 95.2
224.865 95.2
224.8983 96.55
224.9315 97.2
224.9597 97.2
224.993 98.3
225.0238 99.35
225.0572 99.35
225.0873 100.45
225.1201 100.45
225.1497 101.55
225.1788 102.45
225.2122 102.45
225.2455 102.85
225.2746 103.3
225.3023 103.3
225.3315 103.5
225.3648 103.5
225.3945 103.5
225.4238 103.5
225.4571 103.5
225.4854 103.5
225.5187 103.5
225.5507 103.5
225.5818 103.5
225.6129 103.5
225.6413 103.5
225.6746 103.5
225.706 103.5
225.7376 103.5
225.7686 103.5
225.7994 103.5
225.8327 103.5
225.8602 103.3
225.8903 103.3
225.9199 101.1
225.9532 94.55
225.9866 94.55
226.0152 88.25
226.0452 73.6
226.0743 73.6
226.1029 60.9
226.1362 49.8
226.1645 49.8
226.1938 37.55
226.2268 37.55
226.2597 27.5
226.293 13.95
226.3219 13.95
226.35 -0.65
226.382 -0.65
226.4115 -10.7
226.4448 -15.5
226.4773 -15.5
226.5062 -15.7
226.5333 -15.7
226.5623 -15.7
226.5957 -15.7
226.629 -15.7
226.6555 -15.7
226.6839 -15.7
226.7134 -15.7
226.7467 -16.35
226.7756 -17.9
226.8089 -17.9
226.8387 -21.6
226.8677 -21.6
226.901 -26.4
226.9338 -29.7
226.9648 -29.7
226.9967 -34.05
227.0266 -39.1
227.06 -39.1
227.0903 -43.9
227.121 -48.7
227.1499 -48.7
227.1797 -55.7
227.213 -55.7
227.2463 -61.35
227.2736 -65.5
227.3069 -65.5
227.3354 -68.15
227.3687 -71.85
227.4021 -71.85
227.4312 -74.7
227.4617 -78.6
227.493 -78.6
227.5264 -82.55
227.5597 -85.6
227.5878 -85.6
227.6196 -86.9
227.6495 -86.9
227.6828 -89.55
227.712 -91.5
227.7403 -91.5
227.7691 -93.7
227.7976 -93.7
227.8309 -96.55
227.8601 -98.3
227.8934 -100.25
227.9267 -100.25
227.9541 -103.1
227.9874 -103.1
228.0181 -105.05
228.0515 -107
228.0805 -107
228.1088 -108.1
228.1422 -108.3
228.1752 -108.3
228.2085 -108.3
228.2409 -109.2
228.2743 -109.2
228.3076 -110.5
228.3363 -112.25
228.3678 -112.25
228.3977 -114
228.431 -114
228.4644 -114
228.4937 -113.35
228.5227 -112.25
228.551 -112.25
228.5812 -110.75
228.6145 -110.75
228.6427 -107.45
228.676 -103.75
228.7037 -103.75
228.7348 -98.3
228.7681 -93.05
228.8007 -93.05
228.8273 -87.8
228.8598 -87.8
228.8896 -82.75
228.9229 -77.95
228.9505 -77.95
228.9833 -71.85
229.0166 -69.65
229.0453 -69.65
229.0786 -61.8
229.1102 -59.85
229.1371 -59.85
229.1655 -59.6
229.193 -59.6
229.2251 -57.65
229.2585 -53.05
229.2918 -53.05
229.3225 -47.15
229.3507 -47.15
229.384 -39.3
229.4174 -32.5
229.4444 -32.5
229.4761 -27.5
229.5054 -21.8
229.5348 -21.8
229.5681 -17.45
229.5977 -17.45
229.6303 -12.85
229.6596 -7.2
229.6929 -7.2
229.7262 -1.7
229.7539 9.6
229.7859 9.6
229.8144 16.35
229.8466 21.4
229.88 21.4
229.9093 28.6
229.9378 28.6
229.9673 38.2
229.9946 47.15
230.028 47.15
230.0613 52.4
230.0909 55.25
230.1199 55.25
230.1478 63.55
230.1778 63.55
230.2112 74.25
230.2424 88.45
230.2707 88.45
230.3003 101.75
230.3282 109.85
230.3616 109.85
230.3938 118.6
230.4211 124.7
230.4511 124.7
230.4797 130.15
230.513 130.15
230.5407 132.8
230.5695 134.75
230.5972 134.75
230.6306 136.7
230.6639 138.9
230.6973 138.9
230.7287 140.65
230.7581 140.65
230.7871 143.3
230.8204 146.35
230.8476 146.35
230.8809 148.95
230.9118 152
230.9405 152
230.9731 154.85
231.0022 154.85
231.0316 156.6
231.0626 158.15
231.0948 158.15
231.1282 158.55
231.1615 158.35
231.1909 158.35
231.2196 157.9
231.2498 157.9
231.2832 155.95
231.3165 152.65
231.3444 152.65
231.3727 148.75
231.4004 148.75
231.4337 143.3
231.4671 135.65
231.4972 126.9
231.5259 126.9
231.5577 114.9
231.591 100.9
231.6244 100.9
231.6577 88.45
231.6858 73.8
231.7137 73.8
231.7471 65.75
231.7754 65.75
231.8088 57.45
231.836 47.15
231.8677 47.15
231.9004 35.15
231.9334 24.45
231.9604 24.45
231.9895 10
232.0192 10
232.0526 -7.4
232.0859 -18.55
232.1192 -18.55
232.1468 -28.35
232.1787 -35.8
232.2117 -35.8
232.2431 -39.5
232.2705 -43.25
232.3038 -43.25
232.3322 -49.8
232.3656 -49.8
232.3938 -68.8
232.4244 -85.15
232.4577 -85.15
232.4885 -96.3
232.5219 -107.25
232.5528 -107.25
232.5849 -116.2
232.615 -116.2
232.644 -124.25
232.6773 -134.55
232.7071 -134.55
232.7367 -144.15
232.7668 -152.45
232.7992 -152.45
232.8325 -161.65
232.8609 -161.65
232.8887 -176.05
232.9176 -187.4
232.9476 -187.4
232.9809 -196.35
233.0143 -206.4
233.0476 -206.4
233.0751 -213.4
233.1076 -218.4
233.1351 -218.4
233.1685 -218.4
233.2008 -218.4
233.2298 -218.4
233.2577 -218.4
233.2858 -218.4
233.3191 -218.4
233.3525 -218.4
233.3841 -218.4
233.4174 -218.4
233.4448 -218.4
233.4781 -218.4
233.509 -218.4
233.5379 -218.4
233.5672 -218.4
233.6006 -218.4
233.6339 -218.4
233.6629 -218.4
233.6938 -218.4
233.7249 -218.4
233.7526 -218.4
233.786 -218.4
233.8192 -218.4
233.8477 -218.4
233.881 -218.4
233.9119 -218.4
233.9452 -218.4
233.9738 -218.4
234.0013 -218.4
234.0346 -218.4
234.0669 -218.4
234.1002 -218.4
234.1273 -218.4
234.1565 -218.4
234.1888 -218.4
234.2221 -218.4
234.2555 -218.4
234.2877 -218.4
234.3183 -218.4
234.3477 -218.4
234.3789 -218.4
234.4122 -218.4
234.4404 -218.4
234.4702 -218.4
234.502 -218.4
234.5333 -218.4
234.5667 -218.4
234.6 -218.4
234.6287 -218.4
234.6577 -218.4
234.6861 -218.4
234.7194 -218.4
234.7465 -218.4
234.7773 -218.4
234.8066 -218.4
234.8372 -218.4
234.8705 -218.4
234.9039 -218.4
234.932 -218.4
234.962 -218.4
234.9902 -218.4
235.0235 -218.4
235.051 -218.4
235.0803 -218.4
235.1074 -218.4
235.14 -218.4
235.1733 -218.4
235.2067 -218.4
235.2344 -218.4
235.2646 -218.4
235.2943 -218.4
235.3276 -218.4
235.3545 -218.4
235.3855 -218.4
235.4161 -218.4
235.448 -218.4
235.4813 -218.4
235.5146 -218.4
235.5427 -218.4
235.5731 -218.4
235.6056 -218.4
235.639 -218.4
235.6677 -218.4
235.6978 -218.4
235.7271 -218.4
235.7605 -218.4
235.7938 -218.4
235.8233 -218.4
235.856 -218.4
235.8866 -218.4
235.9157 -218.4
235.9491 -218.4
235.9773 -218.4
236.0061 -218.4
236.035 -218.4
236.0684 -218.4
236.1017 -218.4
236.135 -218.4
236.1636 -218.4
236.1933 -217.35
236.2266 -216
236.2599 -216
236.2885 -210.8
236.3174 -205.55
236.3507 -205.55
236.3816 -197.45
236.4149 -191.35
236.4438 -191.35
236.4734 -187.85
236.5027 -187.85
236.5361 -183.25
236.5694 -178.45
236.5967 -178.45
236.6257 -171
236.6548 -171
236.6847 -163.15
236.7125 -157.05
236.7459 -157.05
236.7764 -150.05
236.8077 -144.35
236.8378 -144.35
236.8709 -138.05
236.9042 -135
236.9367 -135
236.968 -130.6
237.0014 -120.55
237.0326 -120.55
237.0659 -108.1
237.0936 -108.1
237.1225 -98.05
237.1537 -87.55
237.1871 -87.55
237.2204 -73.6
237.2538 -66.8
237.2818 -66.8
237.3132 -61.6
237.3405 -51.55
237.3739 -51.55
237.4011 -44.1
237.4305 -44.1
237.4585 -29.9
237.4872 -19
237.5155 -19
237.5488 -11.35
237.5779 -11.35
237.6069 -8.3
237.6342 -8.7
237.6626 -8.7
237.6946 -8.95
237.728 -8.95
237.7613 -8.95
237.7917 -8.95
237.8225 -8.95
237.8536 -7.85
237.887 -3.05
237.9162 -3.05
237.9451 2.8
237.9784 9.6
238.0058 9.6
238.0392 12.85
238.067 12.85
238.0955 13.1
238.1234 13.1
238.1526 12.85
238.1802 13.75
238.2136 13.75
238.2416 17.25
238.2711 17.25
238.3022 22.5
238.3356 25.95
238.3689 25.95
238.3984 26.65
238.4293 27.7
238.4605 27.7
238.489 30.1
238.5224 34.25
238.5522 34.25
238.5815 38
238.6084 38
238.6387 41.25
238.6721 43.45
238.7015 43.45
238.7349 45.65
238.7647 45.65
238.793 47.4
238.8263 49.15
238.8597 51.3
238.8922 51.3
238.9194 53.95
238.9492 53.95
238.9825 57.2
239.0143 61.15
239.0421 61.15
239.0721 64.4
239.1021 64.4
239.1354 67.9
239.1625 70.75
239.1958 70.75
239.2236 73.8
239.2564 76.2
239.2897 76.2
239.3188 77.95
239.3461 79.05
239.3794 79.05
239.4089 79.5
239.4422 79.5
239.4756 79.5
239.5044 79.25
239.5344 79.25
239.565 79.05
239.5983 78.4
239.6266 78.4
239.6546 77.1
239.6871 77.1
239.7159 75.55
239.7492 71.85
239.7794 71.85
239.8125 68.15
239.8398 64.65
239.8687 64.65
239.9021 59.6
239.9312 59.6
239.9589 54.6
239.9904 50.45
240.0203 50.45
240.0536 46.05
240.0831 46.05
240.1119 43
240.1442 41.7
240.1774 41.7
240.2107 41.05
240.2418 40.8
240.2697 40.8
240.3001 40.6
240.3335 40.4
240.3668 40.4
240.3956 39.95
240.4289 39.3
240.4615 39.3
240.4904 38.65
240.5237 37.1
240.5545 37.1
240.5858 34.7
240.6144 34.7
240.6433 30.8
240.6767 26.65
240.7045 26.65
240.7334 20.95
240.7657 20.95
240.7952 14.4
240.8285 9.8
240.8567 9.8
240.8847 5.85
240.9133 5.85
240.9432 -0.85
240.9765 -10.25
241.0098 -17.65
241.04 -17.65
241.0688 -25.3
241.1021 -25.3
241.1355 -30.35
241.1667 -34.5
241.1951 -34.5
241.2262 -39.75
241.2539 -45.2
241.2872 -45.2
241.3152 -50.45
241.3457 -50.45
241.3764 -54.6
241.4057 -58.95
241.4391 -58.95
241.4724 -62.9
241.4997 -65.3
241.5285 -65.3
241.557 -67.05
241.5903 -67.05
241.6175 -67.9
241.6508 -67.9
241.6774 -67.9
241.7096 -68.15
241.7429 -68.35
241.7733 -68.35
241.8039 -69
241.8334 -69
241.8615 -69.65
241.8949 -70.55
241.9227 -70.55
241.9531 -71.85
241.981 -71.85
242.0108 -72.7
242.0441 -73.8
242.0737 -73.8
242.1011 -74.9
242.1339 -76.45
242.1617 -76.45
242.1951 -77.75
242.2241 -77.75
242.2538 -79.25
242.2839 -80.8
242.3131 -80.8
242.3465 -81.9
242.3789 -82.55
242.4067 -82.55
242.438 -83.4
242.4714 -83.4
242.5047 -84.1
242.535 -84.3
242.5661 -84.3
242.5971 -84.3
242.6282 -84.3
242.6615 -84.3
242.6904 -84.3
242.7187 -84.3
242.7494 -84.1
242.7784 -83.65
242.8117 -83.65
242.8394 -82.75
242.868 -81.9
242.8952 -81.9
242.924 -79.95
242.9573 -79.95
242.9906 -76.45
243.021 -72.05
243.051 -72.05
243.0818 -65.75
243.112 -65.75
243.1454 -55
243.1731 -38.85
243.2008 -38.85
243.2294 -18.75
243.2564 -18.75
243.2897 -1.7
243.3228 11.1
243.3541 11.1
243.3815 16.8
243.4099 16.8
243.4393 22.05
243.4702 29.45
243.5035 29.45
243.5323 35.15
243.5613 48.05
243.5933 48.05
243.6232 61.35
243.6565 73.35
243.6879 73.35
243.7193 88.25
243.7475 88.25
243.776 100.7
243.8094 110.95
243.8393 110.95
243.8665 114.9
243.8998 114.9
243.9324 120.35
243.9657 134.55
243.9925 134.55
244.0228 146.75
244.0523 161.2
244.0848 161.2
244.1181 170.8
244.1515 181.3
244.1804 181.3
244.2132 190.45
244.2413 190.45
244.2746 196.35
244.3031 202.7
244.3312 202.7
244.361 206.65
244.3916 206.65
244.4249 211.45
244.4543 216.25
244.4817 216.25
244.514 218.4
244.5447 218.4
244.578 218.4
244.6077 218.4
244.6368 218.4
244.6661 218.4
244.6954 218.4
244.7288 218.4
244.7614 218.4
244.7892 218.4
244.8225 218.4
244.8504 218.2
244.8837 218
244.9119 218
244.9401 218
244.9677 218
244.997 218
245.0284 218.4
245.0618 218.4
245.0887 218.4
245.119 218.4
245.1524 218.2
245.1848 218.2
245.2181 218.2
245.2475 218.2
245.2767 218
245.306 218
245.3376 214.5
245.3709 206.2
245.399 206.2
245.4299 195.9
245.4628 181.5
245.4957 181.5
245.5288 167.5
245.5622 156.8
245.59 156.8
245.6185 142.2
245.6484 142.2
245.6817 125.8
245.7113 111.8
245.7446 111.8
245.7727 94.35
245.8057 79.7
245.839 79.7
245.8676 70.75
245.8956 70.75
245.9252 59.15
245.9579 48.7
245.9912 48.7
246.0185 37.35
246.0468 37.35
246.0748 27.3
246.1045 12.65
246.1321 12.65
246.1655 -4.55
246.1939 -17
246.2238 -17
246.2537 -27.3
246.2837 -27.3
246.317 -31.65
246.3503 -35.35
246.378 -35.35
246.4113 -46.95
246.4393 -59.4
246.4726 -59.4
246.5051 -76
246.5348 -92.4
246.5681 -92.4
246.6015 -103.3
246.6348 -115.95
246.6638 -115.95
246.6934 -126.65
246.7254 -126.65
246.7587 -140
246.792 -152
246.8202 -152
246.8535 -164.45
246.8835 -174.5
246.9123 -174.5
246.9456 -186.3
246.9769 -194.85
247.0102 -194.85
247.0381 -204
247.0668 -212.75
247.1002 -212.75
247.1315 -218.4
247.1606 -218.4
247.1872 -218.4
247.2159 -218.4
247.2492 -218.4
247.2793 -218.4
247.3127 -218.4
247.3445 -218.4
247.3745 -218.4
247.4078 -218.4
247.4376 -218.4
247.4707 -218.4
247.4979 -218.4
247.5267 -218.4
247.5589 -218.4
247.5876 -218.4
247.6158 -218.4
247.6466 -218.4
247.6756 -218.4
247.705 -218.4
247.7383 -218.4
247.7675 -218.4
247.7956 -218.4
247.8287 -218.4
247.8568 -218.4
247.8902 -218.4
247.9203 -218.4
247.9502 -218.4
247.9796 -218.4
248.0081 -218.4
248.0415 -218.4
248.0731 -218.4
248.1039 -218.4
248.1327 -218.4
248.1597 -218.4
248.1931 -218.4
248.2224 -218.4
248.2557 -218.4
248.2821 -218.4
248.3155 -218.4
248.3488 -218.4
248.3789 -218.4
248.4122 -218.4
248.4415 -218.4
248.4694 -218.4
248.5027 -218.4
248.5331 -218.4
248.5649 -218.4
248.5955 -218.4
248.6286 -218.4
248.662 -218.4
248.6918 -218.4
248.7209 -218.4
248.7496 -218.4
248.7787 -218.4
248.8121 -218.4
248.8396 -218.4
248.871 -218.4
248.9039 -218.4
248.9372 -218.4
248.9706 -218.4
248.9992 -218.4
249.0284 -218.4
249.057 -218.4
249.086 -218.4
249.118 -218.4
249.1513 -218.4
249.1802 -218.4
249.2083 -218.4
249.2378 -218.4
249.2646 -218.4
249.2965 -218.4
249.3298 -218.4
249.3595 -218.4
249.39 -218.4
249.4233 -218.4
249.4511 -218.4
249.4845 -218.4
249.5149 -218.4
249.5432 -218.4
249.5722 -218.4
249.6025 -218.4
249.6358 -218.4
249.6644 -218.4
249.6957 -218.4
249.7237 -218.4
249.7563 -218.4
249.7897 -218.4
249.8172 -218.4
249.8463 -218.4
249.8732 -218.4
249.9066 -218.4
249.9399 -218.4
249.9733 -218.4
250.0013 -218.4
250.031 -214.7
250.0644 -214.05
250.0977 -214.05
250.1257 -209.7
250.1588 -199.65
250.1867 -199.65
250.216 -189.8
250.2493 -189.8
250.2801 -179.1
250.3135 -173
250.3456 -173
250.3726 -169.05
250.4059 -168.2
250.4382 -168.2
250.4715 -165.1
250.5012 -161.2
250.5346 -161.2
250.5679 -157.9
250.5974 -154.2
250.6253 -154.2
250.6586 -151.8
250.6885 -151.8
250.7218 -148.75
250.7551 -143.7
250.7833 -143.7
250.8104 -136.05
250.8387 -136.05
250.8721 -128.4
250.9018 -117.7
250.9318 -117.7
250.9651 -105.7
250.9922 -95.2
251.0255 -95.2
251.0535 -83.65
251.0868 -69.65
251.1144 -69.65
251.1478 -50.65
251.1811 -38.4
251.2102 -38.4
251.2383 -24.9
251.27 -24.9
251.302 -15.9
251.3353 -8.5
251.3633 -8.5
251.393 -5.65
251.4203 -5.65
251.452 3.05
251.4853 12.85
251.5187 12.85
251.5484 24.2
251.5783 33.6
251.6074 33.6
251.6407 46.3
251.6682 58.95
251.6973 58.95
251.7264 71.2
251.7598 71.2
251.7922 85.15
251.8253 95.65
251.8545 95.65
251.8864 107.65
251.9174 116.2
251.9508 116.2
251.9775 125.6
252.0067 125.6
252.0346 134.1
252.0664 141.55
252.0998 141.55
252.1297 145.9
252.1631 148.75
252.195 148.75
252.2283 152.45
252.2617 159.65
252.2909 159.65
252.3219 168.85
252.3534 178.65
252.3814 178.65
252.4148 186.3
252.4481 186.3
252.4763 195.25
252.5085 202.05
252.5374 202.05
252.5708 207.3
252.6003 214.25
252.6295 214.25
252.6579 218.4
252.6912 218.4
252.7245 218.4
252.7579 218.4
252.7849 218.4
252.8141 218.4
252.8457 218.4
252.8791 218.4
252.9054 218.4
252.9344 218.4
252.9677 218.4
253.001 218.4
253.0344 218.4
253.0661 218.4
253.0941 218.4
253.1236 218.4
253.1558 218.4
253.1891 218.4
253.2189 218.4
253.2475 218.4
253.2792 218.4
253.3117 218.4
253.345 218.4
253.3752 218.4
253.406 218.4
253.4359 218.4
253.4641 218.4
253.4974 218.4
253.5259 218.4
253.5553 218.4
253.5836 218.4
253.6162 218.4
253.6495 218.4
253.6811 218.4
253.7091 218.4
253.7407 218.4
253.7699 218.4
253.8032 218.4
253.8316 218.4
253.8614 218.4
253.8898 218.4
253.9203 218.4
253.9536 218.4
253.9837 218.4
254.0111 218.4
254.0444 218.4
254.0765 218.4
254.1098 218.4
254.1378 218.4
254.1691 218.4
254.1965 218.4
254.2299 218.4
254.2632 218.2
254.2966 218.2
254.3279 217.75
254.3613 216.45
254.39 216.45
254.4233 214.95
254.4538 214.5
254.4842 214.5
254.5117 213.2
254.5405 213.2
254.5738 211.85
254.6018 210.8
254.6301 210.8
254.6609 209.45
254.692 209.45
254.7253 208.15
254.7555 207.3
254.7856 207.3
254.8138 206.2
254.8436 204.2
254.877 204.2
254.906 201.15
254.9346 201.15
254.9679 197.9
254.9988 195.5
255.0322 195.5
255.0655 192
255.0967 188.3
255.1251 188.3
255.1544 185.65
255.1877 182.15
255.2169 182.15
255.2446 179.75
255.2779 179.75
255.3064 176.5
255.3397 173.4
255.3694 173.4
255.3981 168.85
255.4256 168.85
255.4557 164.05
255.489 157.05
255.5184 157.05
255.5473 148.3
255.5757 141.3
255.609 141.3
255.6423 134.55
255.6714 123.2
255.7022 123.2
255.7312 103.5
255.7609 103.5
255.7942 78.6
255.8275 61.35
255.8549 61.35
255.8882 42.55
255.9204 32.5
255.9538 32.5
255.9816 14.4
256.0132 -5.65
256.0402 -5.65
256.0694 -19.2
256.1027 -19.2
256.1326 -26.85
256.1659 -36.65
256.1967 -36.65
256.2255 -43.25
256.2588 -46.05
256.2865 -46.05
256.3169 -46.5
256.3479 -46.5
256.376 -48.9
256.4093 -53.95
256.4386 -53.95
256.4697 -58.75
256.4985 -64.65
256.5286 -64.65
256.5619 -70.1
256.5913 -70.1
256.6227 -74.25
256.651 -79.95
256.6793 -79.95
256.7126 -85.4
256.7425 -91.95
256.7702 -91.95
256.8009 -98.3
256.8332 -98.3
256.8665 -105.25
256.8999 -111.4
256.9316 -111.4
256.9619 -119.05
256.99 -125.15
257.0233 -125.15
257.0543 -133.9
257.0846 -142.4
257.1165 -142.4
257.1437 -149.85
257.177 -157.05
257.2045 -157.05
257.2359 -162.05
257.2643 -162.05
257.2962 -166.2
257.3296 -168.6
257.3629 -168.6
257.3906 -173.65
257.4189 -173.65
257.4474 -179.75
257.4807 -185.2
257.5091 -185.2
257.5416 -188.5
257.569 -188.5
257.5994 -189.8
257.6319 -190
257.6652 -190
257.6943 -190
257.7222 -190.45
257.7524 -190.45
257.7858 -191.55
257.8183 -193.3
257.8496 -193.3
257.8788 -194.15
257.908 -194.15
257.941 -194.6
257.9716 -196.35
258.0044 -196.35
258.0377 -198.55
258.0655 -198.55
258.0988 -200.05
258.1268 -200.5
258.1566 -200.5
258.1866 -200.5
258.2177 -200.5
258.2511 -200.5
258.2844 -200.5
258.313 -200.5
258.3419 -200.5
258.3741 -200.5
258.4074 -200.5
258.4347 -200.5
258.4639 -200.3
258.4914 -200.3
258.5201 -200.3
258.5505 -200.3
258.5838 -199.85
258.6151 -199
258.6427 -199
258.6747 -198.3
258.7031 -196.8
258.7364 -196.8
258.7683 -194.85
258.7959 -193.1
258.8256 -193.1
258.8589 -190.7
258.8922 -188.7
258.9202 -188.7
258.9535 -187.85
258.9808 -187.85
259.0128 -187.6
259.0461 -187.6
259.078 -187.6
259.1051 -187.6
259.1353 -187.6
259.162 -187.6
259.1954 -187.6
259.223 -187.6
259.2516 -187.6
259.2821 -187.6
259.3105 -187.85
259.3381 -187.85
259.3714 -187.85
259.4048 -187.85
259.4379 -187.6
259.4688 -187.6
259.5022 -187.6
259.5355 -186.95
259.5664 -186.95
259.594 -185
259.6223 -185
259.6498 -182.4
259.6782 -182.4
259.7103 -179.1
259.7421 -175.4
259.7687 -175.4
259.8004 -170.6
259.8338 -166.2
259.8671 -161.4
259.8949 -161.4
259.9224 -157.05
259.9508 -157.05
259.9802 -154.85
260.0135 -153.55
260.0443 -153.55
260.0776 -151.6
260.111 -148.95
260.1443 -148.95
260.1776 -144.6
260.2067 -137.15
260.2374 -137.15
260.2648 -126.45
260.2941 -126.45
260.3267 -112.5
260.356 -99.8
260.3849 -99.8
260.4155 -84.75
260.4464 -84.75
260.4798 -73.6
260.5097 -66.6
260.5431 -66.6
260.5702 -61.35
260.6031 -54.8
260.6364 -54.8
260.6684 -48.9
260.6959 -48.9
260.7248 -41.5
260.7522 -33.85
260.7856 -33.85
260.8147 -26.85
260.8435 -26.85
260.8719 -21.4
260.9035 -14.15
260.9368 -14.15
260.9702 -7.2
260.999 -2.8
261.0323 -2.8
261.0656 4.8
261.099 13.95
261.1299 13.95
261.1588 23.55
261.1873 30.55
261.2173 30.55
261.2506 39.75
261.2838 39.75
261.312 48.25
261.3408 56.1
261.3681 56.1
261.4014 68.8
261.4291 68.8
261.4587 81.65
261.4853 91.7
261.5154 91.7
261.5437 104.15
261.577 104.15
261.606 113.8
261.6357 124.25
261.665 124.25
261.6965 130.8
261.7298 134.3
261.7591 134.3
261.7924 140.45
261.8217 148.1
261.8498 148.1
261.8831 154.65
261.9151 154.65
261.9437 159.45
261.9743 164.9
262.0065 164.9
262.0399 169.05
262.0732 175.4
262.1025 175.4
262.1314 182.15
262.1589 182.15
262.1922 186.55
262.2204 192
262.2484 192
262.2755 197
262.3088 203.8
262.3415 203.8
262.3747 210.1
262.4053 210.1
262.4362 214.25
262.4681 218.4
262.5014 218.4
262.528 218.4
262.557 218.4
262.5865 218.4
262.6168 218.4
262.6501 218.4
262.6834 218.4
262.7144 218.4
262.7462 218.4
262.7748 218.4
262.8082 218.4
262.8372 218.4
262.8682 218.4
262.9016 218.4
262.9349 218.4
262.967 218.4
262.9979 218.4
263.0274 218.4
263.0607 218.4
263.0883 218.4
263.1217 218.4
263.1517 218.4
263.185 218.4
263.2152 218.4
263.2485 218.4
263.2819 218.4
263.311 218.4
263.3386 218.4
263.3679 218.4
263.4001 218.4
263.4334 218.4
263.4608 218.4
263.4919 218.4
263.5252 218.4
263.5585 218.4
263.5919 218.4
263.6246 218.4
263.655 218.4
263.6873 218.4
263.7172 218.4
263.7505 218.4
263.7794 218.4
263.808 218.4
263.836 218.4
263.8653 218.4
263.8986 218.4
263.9276 218.4
263.9609 218.4
263.9903 218.4
264.0182 218.4
264.0515 218.4
264.0831 218.4
264.1142 218.4
264.1475 218.4
264.1779 218.4
264.2112 218.4
264.2435 218.4
264.2742 218.4
264.3073 218.4
264.3402 218.4
264.3735 218.4
264.403 218.4
264.4342 218.4
264.464 218.4
264.4951 218.4
264.5285 218.4
264.5573 218.4
264.5906 218.4
264.6204 218.4
264.6514 218.4
264.6847 218
264.7142 218
264.7449 218
264.7755 217.55
264.8079 217.35
264.8412 217.35
264.8745 217.35
264.9065 217.35
264.9365 217.35
264.9698 217.1
265.0031 215.35
265.0305 215.35
265.0609 207.95
265.0933 207.95
265.1266 194.85
265.1599 181.95
265.1925 181.95
265.2224 166.2
265.2542 154
265.2841 154
265.3175 138.7
265.3452 124.05
265.3744 124.05
265.4041 112.25
265.4356 112.25
265.4689 103.95
265.5022 99.6
265.5295 99.6
265.5583 90.65
265.5887 90.65
265.6221 77.3
265.6492 55
265.6811 55
265.7104 35.8
265.7408 10.45
265.7742 10.45
265.8051 -12.85
265.8343 -24.45
265.8676 -24.45
265.8973 -27.3
265.9307 -33.2
265.9599 -33.2
265.989 -47.15
266.0173 -47.15
266.0491 -60.05
266.0824 -75.55
266.1157 -88.65
266.1477 -88.65
266.1757 -98.5
266.2041 -98.5
266.2375 -110.05
266.2652 -119.45
266.2939 -119.45
266.3262 -132.35
266.3595 -145.7
266.3929 -145.7
266.4262 -156.4
266.4547 -168.85
266.4881 -168.85
266.5193 -181.05
266.5526 -192.45
266.5799 -192.45
266.611 -200.5
266.6383 -207.5
266.6717 -207.5
266.705 -214.25
266.7383 -218.4
266.7717 -218.4
266.8002 -218.4
266.8301 -218.4
266.8634 -218.4
266.8946 -218.4
266.9243 -218.4
266.9576 -218.4
266.9904 -218.4
267.0237 -218.4
267.0539 -218.4
267.0821 -218.4
267.1122 -218.4
267.1407 -218.4
267.174 -218.4
267.2066 -218.4
267.2346 -218.4
267.2634 -218.4
267.2923 -218.4
267.3256 -218.4
267.3568 -218.4
267.3853 -218.4
267.4143 -218.4
267.4472 -218.4
267.4805 -218.4
267.5073 -218.4
267.5405 -218.4
267.5717 -218.4
267.6003 -218.4
267.6337 -218.4
267.6624 -218.4
267.6896 -218.4
267.7186 -218.4
267.7505 -218.4
267.7839 -218.4
267.8117 -218.4
267.84 -218.4
267.8672 -218.4
267.9005 -218.4
267.9339 -218.4
267.967 -218.4
267.997 -218.4
268.0282 -218.4
268.0562 -218.4
268.0895 -218.4
268.1176 -218.4
268.1468 -218.4
268.1775 -218.4
268.2108 -218.4
268.2442 -218.4
268.2741 -218.4
268.3025 -218.4
268.332 -218.4
268.3593 -218.4
268.3924 -218.4
268.4257 -218.4
268.4583 -218.4
268.486 -218.4
268.5154 -218.4
268.5466 -218.4
268.5799 -218.4
268.6133 -218.4
268.6425 -218.4
268.6703 -218.4
268.6989 -218.4
268.7318 -218.4
268.7597 -218.4
268.7886 -218.4
268.8181 -218.4
268.8476 -218.4
268.8776 -218.4
268.9109 -218.4
268.94 -218.4
268.9686 -218.4
268.9991 -218.4
269.032 -218.4
269.0653 -218.4
269.0941 -218.4
269.124 -218.4
269.152 -218.4
269.1819 -218.4
269.2152 -218.4
269.2433 -218.4
269.2751 -218.4
269.3033 -218.4
269.3324 -218.4
269.3657 -218.4
269.3942 -218.4
269.4249 -218.4
269.4546 -218.4
269.4879 -218.4
269.5212 -218.4
269.5507 -218.4
269.5787 -218.4
269.6096 -218.4
269.6393 -218.4
269.6727 -218.4
269.7019 -218.4
269.7297 -218.4
269.7586 -218.4
269.7875 -218.4
269.8199 -218.4
269.8487 -218.4
269.8787 -218.4
269.9099 -218.4
269.9416 -218.4
269.9749 -218.4
270.0027 -218.4
270.0361 -218.4
270.0636 -218.4
270.0969 -218.4
270.1301 -218.4
270.1596 -218.4
270.1871 -218.4
270.2158 -218.4
270.2451 -218
270.2768 -218
270.3102 -215.8
270.3395 -212.3
270.3697 -212.3
270.3988 -206.85
270.4295 -206.85
270.4629 -199.4
270.4921 -192.65
270.5254 -192.65
270.5587 -184.55
270.5885 -177.15
270.6219 -177.15
270.6511 -172.55
270.6838 -169.95
270.7138 -169.95
270.7404 -169.95
270.7737 -169.95
270.8003 -169.95
270.8301 -169.95
270.8608 -169.95
270.8901 -169.95
270.9227 -169.95
270.9515 -169.95
270.9796 -169.95
271.01 -169.95
271.0374 -168.85
271.0683 -168.85
271.1016 -163.35
271.1304 -156.8
271.1623 -156.8
271.1956 -146.55
271.2233 -138.7
271.2566 -138.7
271.2834 -128.4
271.3142 -128.4
271.3437 -117.95
271.3735 -109.2
271.4068 -109.2
271.435 -98.95
271.4624 -98.95
271.4917 -91.3
271.5243 -82.1
271.5576 -82.1
271.5851 -74.45
271.6177 -69.9
271.6464 -69.9
271.6753 -66.6
271.7084 -66.6
271.737 -66.15
271.7702 -66.8
271.8015 -66.8
271.8327 -68.55
271.866 -72.05
271.8949 -72.05
271.9275 -78.2
271.9608 -78.2
271.9916 -84.5
272.025 -88.9
272.0547 -88.9
272.0842 -94.35
272.1176 -98.95
272.1493 -98.95
272.1826 -104.4
272.2119 -107.9
272.2447 -107.9
272.2718 -109.2
272.3015 -109.2
272.3349 -106.8
272.3632 -101.75
272.3914 -101.75
272.4201 -93.9
272.4471 -93.9
272.4759 -85.8
272.5092 -76.45
272.5423 -76.45
272.5696 -67.05
272.5985 -67.05
272.6259 -52.4
272.6593 -38.4
272.6922 -38.4
272.7216 -22.05
272.7523 -8.5
272.7845 -8.5
272.8179 0.4
272.8467 0.4
272.8748 6.75
272.9069 15.05
272.9396 15.05
272.973 20.95
273.0001 27.3
273.0334 27.3
273.0599 33.4
273.0914 33.4
273.1248 37.55
273.1581 42.15
273.1878 42.15
273.2167 46.5
273.25 51.75
273.2834 56.75
273.3146 56.75
273.3447 63.75
273.3766 63.75
273.4055 71.4
273.4388 80.35
273.4701 80.35
273.4973 87.8
273.5307 96.75
273.5586 96.75
273.5919 103.95
273.622 108.1
273.6534 108.1
273.6822 116.65
273.7154 116.65
273.7487 125.6
273.7798 133.45
273.8126 133.45
273.8411 141.1
273.8692 151.8
273.9026 151.8
273.9305 160.3
273.9621 160.3
273.9918 167.1
274.0235 173.2
274.0568 173.2
274.089 179.55
274.1183 185
274.1491 185
274.1769 189.6
274.2102 194.85
274.2436 194.85
274.2742 197.25
274.3066 202.05
274.34 202.05
274.3733 205.95
274.4066 209.45
274.4337 209.45
274.4633 212.1
274.4966 212.1
274.5299 215.15
274.5564 217.35
274.5859 217.35
274.6164 218.4
274.6473 218.4
274.6807 218.4
274.7119 218.4
274.74 218.4
274.7733 218.4
274.801 218.4
274.8343 218.4
274.8645 218.4
274.893 218.4
274.9221 218.4
274.9537 218.4
274.9871 218.4
275.0192 218.4
275.0462 218.4
275.0757 218.4
275.1034 218.4
275.1367 218.4
275.1666 218.4
275.1947 218.4
275.2236 218.4
275.2539 218.4
275.2873 218.4
275.3206 218.4
275.3493 218.4
275.3788 218.4
275.4115 218.4
275.4448 218.4
275.4734 218.2
275.5024 218.2
275.5304 218.2
275.5637 218.2
275.5969 218.2
275.6271 218.2
275.6566 218.2
275.6871 218.2
275.7158 218
275.7492 218
275.7775 217.1
275.8073 214.95
275.8344 214.95
275.8677 212.95
275.9011 208.35
275.9301 208.35
275.9597 204
275.9884 204
276.0172 199.2
276.0505 193.1
276.0838 193.1
276.1139 185.2
276.1425 185.2
276.1759 175.6
276.2092 167.3
276.2405 157.05
276.2709 157.05
276.3021 149.6
276.3329 149.6
276.3662 142.4
276.394 137.4
276.423 137.4
276.4514 129.75
276.4814 129.75
276.5148 121.2
276.544 111.6
276.5727 98.95
276.6022 98.95
276.6306 84.3
276.6639 84.3
276.692 70.95
276.7253 49.55
276.7522 49.55
276.7851 34.95
276.8184 20.3
276.8492 20.3
276.8776 12
276.9096 12
276.943 5.45
276.9763 -3.05
277.006 -19.65
277.0352 -19.65
277.0654 -31.45
277.0987 -31.45
277.132 -39.5
277.16 -47.6
277.1884 -47.6
277.2166 -53.7
277.245 -53.7
277.2757 -59.85
277.309 -66.4
277.3385 -66.4
277.3683 -75.8
277.3984 -81.9
277.4273 -81.9
277.4607 -89.75
277.494 -96.1
277.5273 -96.1
277.5554 -103.75
277.5849 -103.75
277.6183 -111.15
277.647 -117.95
277.6745 -117.95
277.7049 -122.75
277.7338 -122.75
277.7632 -127.1
277.7966 -130.6
277.8299 -130.6
277.8593 -135.4
277.8922 -138.9
277.9239 -138.9
277.9572 -142.85
277.9873 -146.35
278.0176 -146.35
278.0456 -149.15
278.0754 -151.6
278.1087 -151.6
278.1366 -152.45
278.1636 -152.9
278.1918 -152.9
278.2247 -153.1
278.258 -153.1
278.2859 -153.1
278.3143 -153.3
278.3428 -153.3
278.3762 -155.3
278.4095 -157.7
278.4428 -157.7
278.4717 -160.3
278.505 -161.4
278.5383 -161.4
278.5717 -161.4
278.5986 -161.2
278.6284 -161.2
278.6579 -160.75
278.6882 -160.75
278.7215 -160.3
278.7498 -159.65
278.7784 -159.65
278.8112 -159.2
278.8445 -158.55
278.8779 -158.55
278.9072 -157.9
278.9374 -157.05
278.9656 -157.05
278.9968 -155.95
279.0301 -155.95
279.0634 -155.05
279.0903 -153.1
279.119 -153.1
279.1465 -151.35
279.1798 -148.1
279.2069 -148.1
279.236 -141.75
279.2668 -141.75
279.2974 -133.45
279.3301 -124.95
279.3634 -124.95
279.3962 -116.4
279.4295 -101.75
279.4577 -101.75
279.491 -92.15
279.5215 -85.15
279.5547 -85.15
279.5821 -77.75
279.6112 -77.75
279.6436 -63.55
279.672 -52.85
279.7026 -52.85
279.7359 -39.95
279.7667 -26.2
279.8 -26.2
279.8296 -11.1
279.8576 1.7
279.8861 1.7
279.9194 14.85
279.9527 14.85
279.9825 21.4
280.0105 24.2
280.0423 24.2
280.0716 25.95
280.1049 32.75
280.1319 32.75
280.1619 43.45
280.1907 43.45
280.2231 53.7
280.2564 65.95
280.2861 65.95
280.3155 77.5
280.3444 77.5
280.3775 86.25
280.4108 96.3
280.4389 96.3
280.4697 105.25
280.4976 111.4
280.5284 111.4
280.5616 119.45
280.59 128.85
280.6168 128.85
280.6458 136.5
280.6731 136.5
280.7043 146.1
280.7376 155.5
280.7703 155.5
280.7993 164.45
280.8297 164.45
280.8604 171
280.8937 180.65
280.9214 180.65
280.954 190.9
280.983 190.9
281.015 202.05
281.0484 211.2
281.0783 211.2
281.1061 218.4
281.1394 218.4
281.17 218.4
281.2033 218.4
281.2315 218.4
281.2614 218.4
281.2886 218.4
281.3182 218.4
281.3515 218.4
281.3814 218.4
281.4102 218.4
281.4436 218.4
281.4731 218.4
281.5064 218.4
281.5337 218.4
281.5636 218.4
281.5957 218.4
281.6263 218.4
281.6596 218.4
281.6878 218.4
281.7163 218.4
281.7449 218.4
281.774 218.4
281.8049 218.4
281.8382 218.4
281.8711 218.4
281.9003 218.4
281.9274 218.4
281.9598 218.4
281.9931 218.4
282.0216 218.4
282.055 218.4
282.0843 218.4
282.1159 218.4
282.1492 218.4
282.1826 218.4
282.2119 218.4
282.2405 218.4
282.2682 218.4
282.3015 218.4
282.3318 218.4
282.3631 218.4
282.3915 218.4
282.4236 218.4
282.4569 218.4
282.4902 218.4
282.5167 218.4
282.5493 218.4
282.5777 218.4
282.6111 218.4
282.6388 218.4
282.6672 218.4
282.6952 218.4
282.7285 218.4
282.7618 218.4
282.7932 218.4
282.8265 218.4
282.854 218.4
282.8873 218.4
282.9207 218.4
282.9493 218.4
282.9801 218.4
283.0134 218.4
283.0435 218.4
283.0768 218.4
283.1054 218.4
283.1328 218.4
283.1661 218.4
283.1939 218.4
283.2273 218.4
283.255 218.4
283.2841 218.4
283.3129 218.4
283.3451 218.4
283.3784 218.4
283.4079 218.4
283.4411 218.4
283.4717 218.4
283.4993 218.4
283.5326 218.4
283.5626 218.4
283.5921 218.4
283.6254 218.4
283.6588 218.4
283.6921 218.4
283.7252 218.4
283.7545 218.4
283.7878 218.4
283.8144 218.4
283.8477 218.4
283.8756 218.4
283.9057 218.4
283.9331 218.4
283.962 218.4
283.989 218.4
284.0224 218.4
284.0501 218.4
284.0778 218.4
284.1081 218.4
284.1381 218.4
284.1714 218.4
284.2048 218.4
284.2381 218.4
284.2663 218.4
284.2977 218.4
284.331 218.4
284.3586 218.4
284.3875 218.4
284.4146 218.4
284.443 218.4
284.4763 218.4
284.5096 218.4
284.5386 218.4
284.5677 218.4
284.5971 218.4
284.6304 218.4
284.6635 218.4
284.696 218.4
284.7236 218.2
284.7564 218.2
284.7897 218.2
284.8231 218
284.8564 216.65
284.8857 216.65
284.9156 213.85
284.9451 210.8
284.9785 210.8
285.007 207.95
285.0354 207.95
285.0668 204.65
285.0959 201.8
285.1293 201.8
285.1626 200.5
285.1927 199
285.2231 199
285.2539 197.25
285.2873 196.15
285.3191 196.15
285.3517 195.05
285.3804 194.15
285.4081 194.15
285.4414 193.75
285.4688 193.75
285.5009 193.75
285.5334 193.75
285.5622 193.75
285.5956 193.75
285.6289 193.5
285.6556 193.5
285.6844 193.1
285.7175 193.1
285.7509 192.65
285.7842 192.45
285.8174 192.45
285.8467 192.2
285.8759 192.2
285.9093 192.2
285.9419 192.2
285.9702 192.2
286.0036 192.2
286.0342 192.2
286.0675 192.2
286.1008 192.2
286.1342 192.2
286.1647 192.2
286.1955 192.2
286.2288 192.2
286.2585 192.2
286.2866 192.2
286.3163 191.75
286.3443 191.75
286.3777 191.35
286.4093 190
286.4379 190
286.4655 188.3
286.4964 188.3
286.5298 185.85
286.5594 184.55
286.5868 184.55
286.6164 185
286.6497 185.2
286.6831 185.2
286.7164 185.65
286.7488 185.85
286.7787 185.85
286.812 185.85
286.8453 185.85
286.8786 185.85
286.9117 185.85
286.9451 185.85
286.974 185.85
287.0074 185.85
287.0356 185.85
287.0689 185.85
287.1022 185.85
287.1314 185.85
287.1648 185.85
287.1981 185.85
287.2264 185.85
287.2568 185.85
287.2865 185.85
287.3199 185.85
287.353 185.85
287.3857 185.85
287.4167 185.85
287.4501 185.85
287.4834 185.85
287.5149 185.85
287.5482 185.85
287.5816 185.85
287.6149 185.85
287.6483 185.85
287.6816 185.85
287.7126 185.85
287.746 185.85
287.7793 185.45
287.8126 185.2
287.8459 183.7
287.8793 183.7
287.9086 181.7
287.9406 181.7
287.9739 178.65
288.0069 175.15
288.0403 171.25
288.0736 171.25
288.1035 167.95
288.1369 163.6
288.1671 163.6
288.1966 159
288.2299 155.05
288.2632 155.05
288.2966 148.95
288.3249 141.75
288.3582 141.75
288.3859 133
288.4185 133
288.4518 125.15
288.4818 114.2
288.5105 114.2
288.5405 104.15
288.569 97.4
288.6024 97.4
288.6316 95.45
288.6649 83.2
288.6963 83.2
288.7294 72.3
288.7628 59.85
288.7961 59.85
288.8247 46.7
288.8572 34.25
288.8848 34.25
288.9181 18.55
288.9466 18.55
288.9776 6.75
289.0065 -10
289.036 -10
289.0694 -16.15
289.1021 -17.9
289.1299 -17.9
289.1632 -18.1
289.1915 -18.1
289.2248 -19.85
289.2526 -24.65
289.2832 -24.65
289.3137 -31.2
289.347 -36.65
289.3804 -36.65
289.4137 -42.55
289.4464 -46.7
289.4768 -46.7
289.5042 -49.15
289.5375 -51.1
289.5709 -53.95
289.6003 -53.95
289.6294 -56.75
289.6608 -56.75
289.6941 -59.85
289.7256 -61.8
289.7534 -61.8
289.7868 -63.55
289.8195 -65.5
289.8529 -65.5
289.8816 -67.7
289.9107 -69.2
289.9433 -69.2
289.9727 -70.95
290.006 -70.95
290.0349 -72.3
290.0646 -73.6
290.0945 -73.6
290.1236 -74.25
290.1569 -74.25
290.1851 -74.25
290.2159 -74.25
290.2468 -74.25
290.2788 -74.05
290.3117 -73.6
290.3422 -73.6
290.3756 -72.5
290.4089 -71.65
290.4368 -71.65
290.4702 -71.2
290.5035 -71.2
290.5328 -71.2
290.5618 -71.2
290.5918 -71.2
290.6251 -71.2
290.6584 -71.2
290.6886 -71.2
290.718 -71.2
290.7497 -71.2
290.783 -71.2
290.8115 -71.2
290.8428 -71.2
290.8757 -71.2
290.9061 -71.2
290.9394 -71.2
290.9727 -71.2
291.0026 -71.2
291.036 -71.2
291.0674 -71.2
291.1007 -71.2
291.1339 -71.2
291.1668 -71.2
291.1952 -71.2
291.2238 -71.2
291.2571 -71.2
291.2869 -70.95
291.3172 -70.95
291.3494 -70.75
291.3786 -69.9
291.4119 -69.9
291.4453 -69
291.4747 -67.7
291.503 -67.7
291.5357 -67.05
291.569 -63.55
291.6023 -63.55
291.6325 -59.85
291.6647 -55.7
291.6966 -55.7
291.7299 -50
291.758 -41.9
291.7873 -41.9
291.8206 -33.4
291.854 -26.4
291.8873 -26.4
291.9174 -23.35
291.9457 -23.35
291.9757 -22.5
292.009 -22.25
292.0424 -21.4
292.0734 -21.4
292.1053 -19.85
292.1344 -19.85
292.1638 -17.25
292.1972 -14.15
292.2272 -14.15
292.2606 -10.9
292.2889 -7.85
292.3174 -7.85
292.3507 -5.45
292.3813 -5.45
292.4106 -1.5
292.439 1.3
292.4709 1.3
292.5043 2.6
292.5335 3.05
292.5612 3.05
292.5903 3.05
292.619 3.05
292.6523 3.05
292.6857 3.05
292.7175 3.05
292.7461 3.05
292.7771 3.05
292.8105 3.05
292.8435 3.05
292.8734 3.45
292.9067 3.45
292.94 3.9
292.9734 4.55
293.0059 4.55
293.0379 5
293.0673 5
293.0999 5
293.1332 5
293.162 4.8
293.1954 4.8
293.2235 4.8
293.2535 4.8
293.2868 4.8
293.3158 4.55
293.3491 4.15
293.3815 4.15
293.4103 2.8
293.4436 1.5
293.477 1.5
