時間[s] タイヤの舵角[deg]
0 0
0.02 -2.6
0.05333333 -2.6
0.08666666 -2.6
0.12 -2.6
0.151556 -2.6
0.1848893 -2.6
0.2142439 -2.6
0.243161 -2.6
0.2731042 -2.6
0.3015314 -2.6
0.3290592 -2.6
0.3623925 -2.6
0.3945974 -2.6
0.427595 -2.6
0.4570369 -2.6
0.4843041 -2.6
0.5118892 -2.6
0.5416315 -2.6
0.5710075 -2.6
0.5981842 -2.6
0.6302764 -2.6
0.6609107 -2.6
0.694244 -2.6
0.7226062 -2.6
0.7541404 -2.6
0.782651 -2.6
0.8125987 -2.6
0.845932 -2.6
0.8752876 -2.6
0.9050325 -2.6
0.9383659 -2.6
0.9702098 -2.6
1.000676 -2.6
1.034009 -2.6
1.067343 -2.6
1.097073 -2.6
1.130406 -2.6
1.160267 -2.6
1.193601 -2.6
1.226934 -2.6
1.260267 -2.6
1.29105 -2.6
1.32395 -2.6
1.351776 -2.6
1.382535 -2.6
1.412554 -2.6
1.445888 -2.6
1.479221 -2.6
1.512554 -2.6
1.543415 -2.6
1.574346 -2.6
1.604198 -2.6
1.634101 -2.6
1.663061 -2.6
1.693879 -2.6
1.723492 -2.6
1.756825 -2.6
1.78666 -2.6
1.819993 -2.6
1.849453 -2.6
1.882787 -2.6
1.916075 -2.6
1.944892 -2.6
1.97571 -2.6
2.003793 -2.6
2.037126 -2.6
2.068 -2.6
2.100327 -2.6
2.13366 -2.6
2.160685 -2.6
2.187991 -2.6
2.21715 -2.6
2.24977 -2.6
2.279442 -2.6
2.311012 -2.6
2.344345 -2.6
2.376531 -2.6
2.407367 -2.6
2.434438 -2.6
2.467579 -2.6
2.498671 -2.6
2.530159 -2.6
2.561287 -2.6
2.594621 -2.6
2.622872 -2.6
2.653049 -2.6
2.682234 -2.6
2.715568 -2.6
2.748901 -2.6
2.782234 -2.6
2.815568 -2.6
2.843186 -2.6
2.875113 -2.6
2.90566 -2.6
2.935601 -2.6
2.96748 -2.6
2.9985 -2.6
3.031341 -2.6
3.060995 -2.6
3.090016 -2.6
3.122131 -2.6
3.150026 -2.6
3.18101 -2.6
3.209816 -2.6
3.238701 -2.6
3.269626 -2.6
3.300532 -2.6
3.332773 -2.6
3.361319 -2.6
3.389688 -2.6
3.418969 -2.6
3.451101 -2.6
3.480093 -2.6
3.513427 -2.6
3.542756 -2.6
3.575048 -2.6
3.604761 -2.6
3.635374 -2.6
3.667546 -2.6
3.697122 -2.6
3.727053 -2.6
3.755175 -2.6
3.788509 -2.6
3.81852 -2.6
3.849124 -2.6
3.881893 -2.6
3.915226 -2.6
3.943138 -2.6
3.976472 -2.6
4.00726 -2.6
4.036694 -2.6
4.070027 -2.6
4.098859 -2.6
4.130301 -2.6
4.160234 -2.6
4.192235 -2.6
4.221381 -2.6
4.251392 -2.6
4.284726 -2.6
4.318059 -2.6
4.348004 -2.6
4.381338 -2.6
4.411456 -2.6
4.440681 -2.6
4.472176 -2.6
4.505509 -2.6
4.536777 -2.6
4.57011 -2.8
4.603443 -3.25
4.632575 -3.25
4.665498 -3.9
4.69506 -3.9
4.72503 -4.15
4.758364 -4.15
4.788215 -4.15
4.818289 -4.15
4.851623 -4.15
4.884956 -4.15
4.916489 -4.15
4.948953 -4.15
4.979715 -4.15
5.013048 -4.15
5.046381 -4.15
5.078373 -4.15
5.107965 -4.15
5.141298 -4.15
5.174632 -3.9
5.207965 -3.7
5.241298 -3.7
5.274632 -3.7
5.307965 -3.7
5.341298 -3.7
5.370659 -3.7
5.399096 -3.7
5.430646 -3.7
5.462355 -3.7
5.495688 -3.7
5.529021 -3.7
5.555441 -3.7
5.588116 -3.7
5.617442 -3.7
5.649951 -3.7
5.679405 -3.7
5.70859 -3.7
5.741923 -3.7
5.769026 -3.7
5.802359 -3.7
5.835693 -3.7
5.863348 -3.7
5.891013 -3.7
5.923339 -3.7
5.956673 -3.7
5.989516 -3.7
6.021258 -3.7
6.053514 -3.7
6.086848 -3.7
6.120181 -3.7
6.153514 -3.7
6.1839 -3.7
6.211918 -3.7
6.245252 -3.7
6.278585 -3.7
6.310774 -3.7
6.341371 -3.7
6.374704 -3.7
6.405323 -3.7
6.438656 -3.7
6.468931 -3.7
6.499767 -3.7
6.5331 -3.7
6.563359 -3.7
6.596692 -3.7
6.627169 -3.7
6.660502 -3.7
6.689019 -3.7
6.721788 -3.7
6.755121 -3.7
6.781907 -3.7
6.815073 -3.7
6.845091 -3.7
6.876948 -3.7
6.910281 -3.7
6.941053 -3.7
6.971965 -3.7
7.001764 -3.7
7.032491 -3.7
7.065825 -3.7
7.099158 -3.7
7.132492 -3.7
7.161067 -3.7
7.192559 -3.45
7.225893 -3.25
7.255045 -3.25
7.287389 -2.8
7.320722 -2.15
7.35199 -2.15
7.385324 -1.7
7.418657 -1.5
7.446476 -1.5
7.475005 -1.3
7.505788 -1.3
7.539122 -1.3
7.572455 -1.3
7.603666 -1.3
7.631826 -1.3
7.664695 -1.3
7.698028 -1.3
7.728267 -1.3
7.759803 -1.3
7.790453 -1.3
7.819262 -1.3
7.852595 -1.3
7.885928 -1.3
7.919047 -1.3
7.949261 -1.3
7.982594 -1.3
8.015927 -1.3
8.048244 -1.3
8.080154 -1.3
8.113487 -1.3
8.143412 -1.3
8.176744 -1.3
8.207939 -1.3
8.237732 -1.3
8.269003 -1.3
8.296609 -1.3
8.329943 -1.3
8.358342 -1.3
8.391675 -1.3
8.423694 -1.3
8.453302 -1.3
8.486636 -1.3
8.515676 -1.3
8.54901 -1.3
8.580793 -1.3
8.610723 -1.3
8.644055 -1.3
8.677389 -1.3
8.705015 -1.3
8.731644 -1.3
8.76287 -1.3
8.796203 -1.3
8.826282 -1.3
8.854311 -1.3
8.884141 -1.3
8.917109 -1.3
8.950442 -1.3
8.983776 -1.3
9.015051 -1.3
9.045485 -1.3
9.074712 -1.3
9.108046 -1.3
9.13827 -1.3
9.171603 -1.3
9.203452 -1.3
9.236785 -1.3
9.270119 -1.3
9.300137 -1.3
9.330477 -1.3
9.360917 -1.3
9.393456 -1.3
9.426789 -1.3
9.45496 -1.3
9.484284 -1.3
9.51318 -1.3
9.546514 -1.3
9.579846 -1.3
9.61318 -1.3
9.64461 -1.3
9.675072 -1.3
9.707218 -1.3
9.740551 -1.3
9.773885 -1.3
9.801975 -1.3
9.835309 -1.3
9.867715 -1.3
9.901049 -1.3
9.93172 -1.3
9.964244 -1.3
9.993997 -1.3
10.02684 -1.3
10.06017 -1.7
10.09351 -1.7
10.12677 -1.7
10.16011 -1.7
10.19301 -1.7
10.22635 -1.7
10.25968 -1.7
10.29301 -1.7
10.32211 -1.7
10.35544 -1.7
10.38877 -1.7
10.42187 -1.7
10.45304 -1.7
10.48284 -1.7
10.51618 -1.7
10.54951 -1.7
10.58052 -1.7
10.61164 -1.7
10.64357 -1.7
10.67385 -1.7
10.70719 -1.7
10.73777 -1.7
10.76578 -1.7
10.79911 -1.7
10.82882 -1.7
10.86182 -1.7
10.8944 -1.7
10.92652 -1.7
10.95566 -1.7
10.989 -1.7
11.02233 -1.7
11.0521 -1.7
11.08134 -1.7
11.11467 -1.7
11.14457 -1.7
11.1779 -1.7
11.21108 -1.7
11.23879 -1.7
11.27191 -1.7
11.30109 -1.7
11.33443 -1.7
11.36776 -1.7
11.39725 -1.7
11.43058 -1.7
11.45903 -1.7
11.49236 -1.7
11.52128 -1.7
11.55019 -1.7
11.58072 -1.7
11.61377 -1.7
11.6471 -1.7
11.68034 -1.7
11.71256 -1.7
11.74297 -1.7
11.7763 -1.7
11.80963 -1.7
11.84233 -1.7
11.87471 -1.7
11.90804 -1.7
11.93683 -1.7
11.97017 -1.7
11.99908 -1.7
12.03075 -1.7
12.06091 -1.7
12.08917 -1.7
12.1225 -1.7
12.15584 -1.7
12.18482 -1.7
12.21815 -1.7
12.25112 -1.7
12.28445 -1.7
12.31354 -1.7
12.34249 -1.7
12.37582 -1.7
12.40371 -1.7
12.43209 -1.7
12.46262 -1.7
12.49595 -1.7
12.52929 -1.7
12.56074 -1.7
12.58838 -1.7
12.6192 -1.7
12.6472 -1.7
12.68053 -1.7
12.70961 -1.7
12.73973 -1.7
12.77119 -1.7
12.80154 -1.7
12.83487 -1.7
12.86765 -1.7
12.8978 -1.7
12.9303 -1.7
12.96093 -1.7
12.99427 -1.7
13.02298 -1.7
13.05601 -1.7
13.08838 -1.7
13.11673 -1.7
13.15007 -1.7
13.18334 -1.7
13.21436 -1.7
13.24687 -1.7
13.27835 -1.7
13.31168 -1.7
13.34105 -1.7
13.37361 -1.7
13.40443 -1.7
13.43776 -1.7
13.4711 -1.7
13.49765 -1.7
13.53071 -1.7
13.56405 -1.7
13.5955 -1.7
13.62883 -1.7
13.65847 -1.7
13.68662 -1.7
13.71728 -1.7
13.74839 -1.7
13.78172 -1.7
13.8099 -1.7
13.83897 -1.7
13.87192 -1.7
13.90444 -1.7
13.93777 -1.7
13.96555 -1.7
13.99619 -1.7
14.02952 -1.7
14.06124 -1.7
14.09457 -1.7
14.12459 -1.7
14.15707 -1.7
14.1899 -1.7
14.22104 -1.7
14.25437 -1.7
14.28297 -1.7
14.31381 -1.7
14.34715 -1.7
14.37676 -1.7
14.41009 -1.7
14.43833 -1.7
14.46875 -1.7
14.49935 -1.7
14.53269 -1.7
14.56602 -1.7
14.59683 -1.7
14.62749 -1.7
14.65631 -1.7
14.68958 -1.7
14.72292 -1.7
14.75625 -1.7
14.78799 -1.7
14.8208 -1.7
14.85413 -1.7
14.88747 -1.7
14.9208 -1.7
14.94892 -1.7
14.98009 -1.7
15.00795 -1.7
15.04128 -1.7
15.06955 -1.7
15.09738 -1.7
15.12798 -1.7
15.16131 -1.7
15.19431 -1.7
15.2236 -1.7
15.25228 -1.7
15.28062 -1.7
15.31026 -1.7
15.34235 -1.7
15.37569 -1.7
15.40285 -1.7
15.43258 -1.7
15.46174 -1.7
15.48978 -1.7
15.52311 -1.7
15.55645 -1.7
15.58679 -1.7
15.61537 -1.7
15.64368 -1.7
15.67701 -1.7
15.70671 -1.7
15.7362 -1.7
15.76953 -1.7
15.80141 -1.7
15.83345 -1.7
15.86342 -1.7
15.89287 -1.7
15.9262 -1.7
15.95499 -1.7
15.98832 -1.7
16.02136 -1.7
16.05366 -1.7
16.08638 -1.7
16.11708 -1.7
16.15041 -1.7
16.18375 -1.7
16.2166 -1.7
16.24652 -1.7
16.27792 -1.7
16.31125 -1.7
16.34459 -1.7
16.37455 -1.7
16.4078 -1.7
16.44113 -1.7
16.47446 -1.7
16.50257 -1.7
16.53591 -1.7
16.56445 -1.7
16.59528 -1.7
16.62861 -1.7
16.65809 -1.7
16.69142 -1.7
16.72034 -1.7
16.7503 -1.7
16.78363 -1.7
16.81697 -1.7
16.84712 -1.7
16.87969 -1.7
16.91302 -1.7
16.94635 -1.7
16.97509 -1.7
17.00843 -1.7
17.03955 -1.7
17.06796 -1.7
17.10129 -1.7
17.12938 -1.7
17.15751 -1.7
17.18622 -1.7
17.21955 -1.7
17.25289 -1.7
17.28472 -1.7
17.31645 -1.7
17.34925 -1.7
17.38258 -1.7
17.41592 -1.7
17.44571 -1.7
17.4775 -1.7
17.51083 -1.7
17.53801 -1.7
17.57134 -1.7
17.60155 -1.7
17.63306 -1.7
17.66401 -1.7
17.695 -1.7
17.72833 -1.7
17.75699 -1.7
17.79032 -1.7
17.81965 -1.7
17.85122 -1.7
17.88455 -1.7
17.91604 -1.7
17.94685 -1.7
17.98018 -1.7
18.01009 -1.7
18.04342 -1.7
18.07579 -1.7
18.10547 -1.7
18.1388 -1.7
18.17213 -1.7
18.20547 -1.7
18.23555 -1.7
18.26889 -1.7
18.29888 -1.7
18.33221 -1.7
18.36555 -1.7
18.39375 -1.7
18.42425 -1.7
18.45409 -1.7
18.48349 -1.7
18.51682 -1.7
18.55016 -1.7
18.5797 -1.7
18.61304 -1.7
18.64305 -1.7
18.67639 -1.7
18.70661 -1.7
18.73649 -1.7
18.76509 -1.7
18.79562 -1.7
18.82896 -1.7
18.86229 -1.7
18.89194 -1.7
18.92527 -1.7
18.9586 -1.7
18.99194 -1.7
19.02167 -1.7
19.05121 -1.7
19.08205 -1.7
19.11538 -1.7
19.14872 -1.7
19.17797 -1.7
19.20656 -1.7
19.23573 -1.7
19.26614 -1.7
19.29948 -1.7
19.32894 -1.7
19.36228 -1.7
19.39416 -1.7
19.42316 -1.7
19.4565 -1.7
19.48679 -1.7
19.51445 -1.7
19.54666 -1.7
19.57987 -1.7
19.6132 -1.7
19.64654 -1.7
19.67879 -1.7
19.70725 -1.7
19.74059 -1.7
19.77392 -1.7
19.80256 -1.7
19.8359 -1.7
19.86883 -1.7
19.90216 -1.7
19.93549 -1.7
19.9661 -1.7
19.99944 -1.7
20.03026 -1.7
20.0636 -1.7
20.09693 -1.7
20.1284 -1.7
20.15948 -1.7
20.18627 -1.7
20.21631 -1.7
20.24964 -1.7
20.28147 -1.7
20.3148 -1.7
20.34671 -1.7
20.37869 -1.7
20.41202 -1.7
20.44349 -1.7
20.47551 -1.7
20.50605 -1.7
20.53836 -1.7
20.5717 -0.65
20.60266 -0.65
20.63481 1.3
20.66376 4.15
20.6971 4.15
20.73043 6.75
20.76307 8.5
20.79551 8.5
20.82644 9.35
20.85977 9.6
20.8931 9.6
20.92644 9.15
20.95688 7.4
20.98733 7.4
21.01761 5.2
21.05095 1.7
21.08042 1.7
21.11001 -2.6
21.14144 -5.85
21.17163 -5.85
21.20496 -9.15
21.23539 -10.9
21.26711 -10.9
21.29787 -11.35
21.32811 -11.35
21.36144 -10.9
21.3931 -9.6
21.42266 -9.6
21.45256 -7.4
21.48322 -5.85
21.51533 -5.85
21.54414 -2.6
21.57747 0.2
21.6108 0.2
21.64138 2.15
21.67471 3.45
21.70295 3.45
21.73628 3.7
21.76665 3.45
21.79998 3.45
21.83331 2.8
21.86319 1.5
21.89364 1.5
21.92234 0.4
21.95211 -0.85
21.98545 -0.85
22.01878 -1.3
22.04695 -1.3
22.07587 -1.3
22.10796 -1.3
22.14129 -1.3
22.16983 -1.3
22.20008 -1.3
22.22807 -1.3
22.2614 -1.3
22.29473 -1.3
22.32689 -1.3
22.35509 -1.3
22.38419 -1.3
22.4157 -1.3
22.44904 -1.3
22.47818 -1.3
22.50721 -1.3
22.53765 -1.3
22.56992 -1.3
22.60325 -1.3
22.63149 -1.3
22.66067 -1.3
22.69031 -1.3
22.71872 -1.3
22.75205 -1.3
22.78538 -1.3
22.81798 -1.3
22.84901 -1.3
22.8803 -1.3
22.91363 -1.3
22.94408 -1.3
22.97502 -1.3
23.00671 -1.3
23.04004 -1.3
23.07337 -1.3
23.10155 -1.3
23.13005 -1.3
23.16338 -1.3
23.19202 -1.3
23.22536 -1.3
23.25869 -1.3
23.28786 -1.3
23.32119 -1.3
23.35452 -1.3
23.38786 -1.3
23.41741 -1.3
23.45075 -1.3
23.48023 -1.3
23.51162 -1.3
23.54495 -1.3
23.57703 -1.3
23.60585 -1.3
23.6365 -1.3
23.66713 -1.3
23.70047 -1.3
23.73018 -1.3
23.76351 -1.3
23.79256 -1.3
23.82089 -1.3
23.85422 -1.3
23.88348 -1.3
23.91639 -1.3
23.94673 -1.3
23.97856 -1.3
24.01189 -1.3
24.04133 -1.3
24.07466 -1.3
24.1068 -1.3
24.13524 -1.3
24.16857 -1.3
24.2019 -1.3
24.23204 -1.3
24.26533 -1.3
24.29803 -1.3
24.33137 -1.3
24.36171 -1.3
24.39304 -1.3
24.42637 -1.3
24.45499 -1.3
24.48833 -1.3
24.51619 -1.3
24.54444 -1.3
24.57669 -1.3
24.60625 -1.3
24.63959 -1.3
24.66998 -1.3
24.6983 -1.3
24.72657 -1.3
24.7546 -1.3
24.78794 -1.3
24.82127 -1.3
24.85027 -1.3
24.88083 -1.3
24.91114 -1.3
24.94448 -1.3
24.97295 -1.3
25.00439 -1.3
25.03773 -1.3
25.06647 -1.3
25.09981 -1.3
25.12825 -1.3
25.15799 -1.3
25.18686 -1.3
25.21628 -1.3
25.24961 -1.3
25.28084 -1.3
25.31284 -1.3
25.34204 -1.3
25.37538 -1.3
25.40871 -1.3
25.43783 -1.3
25.46706 -1.3
25.49591 -1.3
25.5264 -1.3
25.55973 -1.3
25.58886 -1.3
25.62017 -1.3
25.64857 -1.3
25.67941 -1.3
25.71275 -1.3
25.74608 -1.3
25.77941 -1.3
25.80663 -1.3
25.8352 -1.3
25.86853 -1.3
25.89851 -1.3
25.92772 -1.3
25.9606 -1.3
25.99393 -1.3
26.02727 -1.3
26.0606 -1.3
26.09048 -1.3
26.12381 -1.3
26.15455 -1.3
26.18788 -1.3
26.22121 -1.3
26.25409 -1.3
26.285 -1.3
26.31398 -1.3
26.34731 -1.3
26.37889 -1.3
26.41166 -1.3
26.44125 -1.3
26.47031 -1.3
26.50364 -1.3
26.53375 -1.3
26.5625 -1.3
26.59164 -1.3
26.62497 -1.3
26.6583 -1.3
26.68761 -1.3
26.71614 -1.3
26.7427 -1.3
26.77122 -1.3
26.80004 -1.3
26.83337 -1.3
26.86208 -1.3
26.89541 -1.3
26.92374 -1.3
26.95563 -1.3
26.98896 -1.3
27.0223 -1.3
27.05155 -1.3
27.08147 -1.3
27.11187 -1.3
27.1452 -1.3
27.17569 -1.3
27.20433 -1.3
27.23766 -1.3
27.27099 -1.3
27.30433 -1.3
27.33374 -1.3
27.36243 -1.3
27.39576 -1.3
27.4291 -1.3
27.46243 -1.3
27.49256 -1.3
27.52177 -1.3
27.55356 -1.3
27.58258 -1.3
27.61592 -1.3
27.64925 -1.3
27.68205 -1.3
27.71394 -1.3
27.74719 -1.3
27.78053 -1.3
27.81227 -1.3
27.84496 -1.3
27.87668 -1.3
27.90639 -1.3
27.93972 -1.3
27.96832 -1.3
27.99795 -1.3
28.03098 -1.3
28.06431 -1.3
28.09764 -1.3
28.1307 -1.3
28.15968 -1.3
28.19301 -1.3
28.2233 -1.3
28.25663 -1.3
28.28997 -1.3
28.32054 -1.3
28.34867 -1.3
28.37872 -1.3
28.41205 -1.3
28.44539 -1.3
28.47684 -1.3
28.50565 -1.3
28.53466 -1.3
28.56799 -1.3
28.59732 -1.3
28.63029 -1.3
28.66343 -1.3
28.69313 -1.3
28.72647 -1.3
28.75677 -1.3
28.78712 -1.3
28.81564 -1.3
28.84487 -1.3
28.8782 -1.3
28.91089 -1.3
28.94021 -1.3
28.96983 -1.3
28.99787 -1.3
29.0312 -1.3
29.06421 -1.3
29.09754 -1.3
29.12687 -1.3
29.15586 -1.3
29.1892 -1.3
29.22253 -1.3
29.25323 -1.3
29.28657 -1.3
29.31758 -1.3
29.35092 -1.3
29.38035 -1.3
29.41067 -1.3
29.444 -1.3
29.47436 -1.3
29.5077 -1.3
29.53718 -1.3
29.57051 -1.3
29.59942 -1.3
29.63132 -1.3
29.66466 -1.3
29.69543 -1.3
29.72876 -1.3
29.75751 -1.3
29.78631 -1.3
29.81964 -1.3
29.84802 -1.3
29.8766 -1.3
29.90982 -1.3
29.93812 -1.3
29.97145 -1.3
30.00478 -1.3
30.03667 -1.3
30.06741 -1.3
30.0979 -1.3
30.13124 -1.3
30.16157 -1.3
30.19117 -1.3
30.22004 -1.3
30.24992 -1.3
30.28325 -1.3
30.31114 -1.3
30.34004 -1.3
30.3695 -1.3
30.40283 -1.3
30.43617 -1.3
30.4695 -1.3
30.49677 -1.3
30.53011 -1.3
30.56312 -1.3
30.59645 -1.3
30.62881 -1.3
30.65917 -1.3
30.6925 -1.3
30.72238 -1.3
30.75572 -1.3
30.78747 -1.3
30.8208 -1.3
30.8506 -1.3
30.87905 -1.3
30.91238 -1.3
30.9454 -1.3
30.97576 -1.3
31.00867 -1.3
31.03889 -1.3
31.07222 -1.3
31.10269 -1.3
31.13602 -1.3
31.16765 -1.3
31.20098 -1.3
31.23431 -1.3
31.26732 -1.3
31.29771 -1.3
31.32735 -1.3
31.35822 -1.3
31.39155 -1.3
31.42018 -1.3
31.45351 -1.3
31.48252 -1.3
31.51499 -1.3
31.54832 -1.3
31.5797 -1.3
31.61304 -1.3
31.64259 -1.3
31.67401 -1.3
31.70734 -1.3
31.73645 -1.3
31.7662 -1.3
31.79949 -1.3
31.82706 -1.3
31.86039 -1.3
31.8894 -1.3
31.91732 -1.3
31.95066 -1.3
31.98345 -1.3
32.01679 -1.3
32.04589 -1.3
32.07892 -1.3
32.10673 -1.3
32.13905 -1.3
32.17239 -1.3
32.20201 -1.3
32.23534 -1.3
32.26626 -1.3
32.29493 -1.3
32.32826 -1.3
32.35675 -1.05
32.38873 -1.05
32.42146 -0.85
32.4548 -0.85
32.48813 -0.85
32.52147 -0.65
32.55034 -0.65
32.58287 -0.65
32.61222 -0.65
32.64555 -0.65
32.67431 -0.65
32.70399 -0.65
32.73321 -0.65
32.76278 -0.4
32.79612 0.2
32.82837 0.2
32.86152 0.4
32.89051 0.4
32.91988 0.4
32.95321 0.4
32.9819 0.4
33.01241 0.4
33.04214 0.4
33.07548 0.4
33.10881 0.4
33.14214 0.4
33.17302 0.4
33.20261 0.4
33.233 0.4
33.26633 0.4
33.29967 0.4
33.32885 0.4
33.35889 0.4
33.38887 0.4
33.4222 0.4
33.45553 0.4
33.48751 0.4
33.52022 0.4
33.55128 0.4
33.58461 0.4
33.61493 0.4
33.6445 0.4
33.67784 0.4
33.70602 0.4
33.73935 0.4
33.77068 0.4
33.80402 0.4
33.8335 0.4
33.86683 0.4
33.90016 0.4
33.93349 0.4
33.96436 0.4
33.99273 0.4
34.02264 0.4
34.05597 0.4
34.08373 0.4
34.11633 0.4
34.14608 0.4
34.17837 0.4
34.2117 0.4
34.24232 0.4
34.27042 0.4
34.30375 0.4
34.33584 0.4
34.36905 0.4
34.39937 0.4
34.42907 0.4
34.45792 0.4
34.48726 0.4
34.5206 0.4
34.5504 0.4
34.58373 0.4
34.61637 0.4
34.64754 0.4
34.68087 0.4
34.71248 0.4
34.7425 0.4
34.77347 0.4
34.80584 0.4
34.83917 0.4
34.8684 0.4
34.90173 0.4
34.93046 0.4
34.9598 0.4
34.99313 0.4
35.02229 0.4
35.05123 0.4
35.08372 0.4
35.11607 0.4
35.14941 0.4
35.17891 0.4
35.20711 0.4
35.23664 0.4
35.26747 0.4
35.3008 0.4
35.3298 0.4
35.36015 0.4
35.39349 0.4
35.42329 0.4
35.45662 0.4
35.48909 0.4
35.51812 0.4
35.54824 0.4
35.5767 0.4
35.61003 0.4
35.63871 0.4
35.6675 0.4
35.70083 0.4
35.73121 0.4
35.76454 0.4
35.79787 0.4
35.82804 0.4
35.86138 0.4
35.89471 0.4
35.92804 0.4
35.95704 0.4
35.98675 0
36.0162 0
36.04953 -0.2
36.08287 -0.2
36.11554 -0.2
36.14349 -0.2
36.17425 -0.2
36.20459 -0.2
36.23793 -0.2
36.2676 -0.2
36.30093 -0.2
36.33133 -0.2
36.36374 -0.2
36.39708 -0.2
36.43041 -0.2
36.45974 -0.2
36.49232 -0.2
36.5207 -0.2
36.55403 -0.2
36.58737 -0.2
36.61832 -0.2
36.64656 -0.2
36.67638 -0.2
36.70953 -0.2
36.73803 -0.2
36.7674 -0.2
36.7958 -0.2
36.82708 -0.2
36.86042 -0.2
36.89375 -0.2
36.92215 -0.2
36.95183 -0.2
36.98182 -0.2
37.01515 -0.2
37.04622 -0.2
37.07776 -0.2
37.10745 -0.2
37.13708 -0.2
37.17042 -0.2
37.2033 -0.2
37.23212 -0.2
37.2615 -0.2
37.29483 0
37.32816 0
37.35705 0
37.38725 0.2
37.41668 0.2
37.44853 0.4
37.48186 0.4
37.51131 0.4
37.54293 0.4
37.57627 0.4
37.6096 0.4
37.64293 0.4
37.67595 0.4
37.70929 0.4
37.73808 0.4
37.77045 0.65
37.80379 0.65
37.83712 0.65
37.87045 0.65
37.89917 0.65
37.9285 0.65
37.96183 0.65
37.9916 0.65
38.0232 0.65
38.05511 0.65
38.08772 0.65
38.12105 0.65
38.15052 0.65
38.18042 0.65
38.20988 0.65
38.23906 0.65
38.2724 0.65
38.30357 0.65
38.33221 0.65
38.36076 0.65
38.39353 0.65
38.42686 0.65
38.4602 -0.4
38.49353 -0.4
38.5261 -1.05
38.55665 -1.95
38.58998 -1.95
38.62083 -2.4
38.65142 -2.8
38.68005 -2.8
38.70938 -2.8
38.74271 -2.8
38.77114 -2.8
38.8036 -2.8
38.83442 -2.8
38.8672 -2.8
38.90053 -2.8
38.93007 -2.8
38.9634 -2.6
38.99232 -2.15
39.02221 -2.15
39.05554 -1.3
39.08456 -0.85
39.11343 -0.85
39.14435 -0.4
39.17768 -0.4
39.21102 -0.2
39.24435 0
39.27386 0
39.30434 0
39.33295 0.4
39.36628 0.4
39.398 1.05
39.42848 1.5
39.45791 1.5
39.49125 2.15
39.52458 2.15
39.55566 2.6
39.58701 3.25
39.61941 3.25
39.65274 3.45
39.68608 3.9
39.71941 4.15
39.75085 4.15
39.78151 4.15
39.81049 4.15
39.84382 4.55
39.87504 5.45
39.90837 5.45
39.9417 5.85
39.97504 6.55
40.00837 6.95
40.03792 6.95
40.07125 7.2
40.10459 7.4
40.13303 7.4
40.16636 7.6
40.19493 7.6
40.22489 8.05
40.25352 8.5
40.28148 8.5
40.31482 9.35
40.34815 10
40.37671 10
40.41004 10.7
40.44284 10.9
40.47113 10.9
40.50446 10.9
40.53343 11.1
40.5665 11.1
40.59983 11.35
40.63031 12.45
40.66364 12.45
40.69698 13.3
40.72577 14.6
40.75368 14.6
40.78305 15.9
40.81638 15.9
40.84579 17
40.87912 18.75
40.91246 18.75
40.94199 20.05
40.97532 21.8
41.00803 21.8
41.03629 24
41.06586 26.2
41.09919 26.2
41.13252 28.8
41.16138 30.55
41.19471 30.55
41.22386 32.1
41.25415 33.2
41.28748 33.2
41.31828 34.05
41.34967 35.35
41.38173 35.35
41.41051 37.35
41.44384 39.5
41.47718 39.5
41.51051 41.7
41.54359 44.1
41.57312 44.1
41.60646 46.5
41.63651 46.5
41.66698 49.35
41.70031 52.6
41.7303 52.6
41.76363 55.7
41.79319 57.65
41.82502 57.65
41.85467 60.7
41.88339 60.7
41.91673 64.4
41.95006 67.5
41.98111 71.4
42.01022 71.4
42.04134 75.8
42.07468 75.8
42.10363 80.8
42.13374 84.5
42.16247 84.5
42.1958 88.45
42.22913 92.15
42.26247 92.15
42.29149 97.6
42.32362 101.75
42.35421 101.75
42.38754 105.05
42.41826 109
42.45028 109
42.48361 112.25
42.5168 114.45
42.55013 114.45
42.58347 115.95
42.61226 117.3
42.64029 117.3
42.66978 119.05
42.70311 120.8
42.73243 120.8
42.76431 123.2
42.79599 123.2
42.82566 125.6
42.85899 128.85
42.88851 128.85
42.92184 131.7
42.95517 136.5
42.98523 136.5
43.01857 140.65
43.0519 145.7
43.08026 145.7
43.10895 149.15
43.13938 154.85
43.17271 154.85
43.20335 160.3
43.23667 165.1
43.26812 165.1
43.29821 168.4
43.33154 172.35
43.36076 172.35
43.39047 175.15
43.4215 178
43.45087 178
43.48421 179.55
43.51754 180.4
43.55038 180.4
43.5834 180.4
43.61352 180.4
43.64685 180.2
43.67485 180.2
43.70436 180.2
43.73592 180.2
43.76548 180
43.79882 180
43.83215 179.1
43.86401 176.9
43.89735 176.9
43.93068 173.65
43.96401 171
43.99337 171
44.02671 168.4
44.05484 167.1
44.08815 167.1
44.12148 166.85
44.14987 167.3
44.1832 168.85
44.21165 168.85
44.24013 170.35
44.27346 170.35
44.30386 171.65
44.33385 171.9
44.36718 171.9
44.39791 171.9
44.43125 171
44.46016 171
44.49121 169.25
44.52149 166.85
44.55146 166.85
44.58479 164.05
44.61288 164.05
44.64289 160.3
44.67165 157.9
44.70498 157.9
44.73831 156.15
44.77065 154.85
44.79828 154.85
44.82755 153.55
44.85647 153.55
44.8898 151.35
44.92313 149.15
44.95314 145.9
44.98648 145.9
45.01664 141.95
45.04997 138.25
45.07968 138.25
45.10855 134.1
45.13857 134.1
45.16887 127.75
45.2022 121.45
45.23237 121.45
45.25982 115.95
45.29316 106.8
45.32328 106.8
45.35662 99.35
45.386 99.35
45.4188 89.3
45.4501 79.7
45.48343 79.7
45.51677 71.85
45.54573 62.65
45.57612 62.65
45.60509 55
45.63395 55
45.66729 49.8
45.69901 41.5
45.72792 41.5
45.76126 30.1
45.79084 17.45
45.82417 17.45
45.85486 6.3
45.88501 -5.65
45.91502 -5.65
45.9456 -10.45
45.97893 -13.95
46.01226 -13.95
46.04305 -21.15
46.0735 -21.15
46.10683 -28.35
46.14017 -37.1
46.17302 -43.65
46.20127 -43.65
46.23053 -50.65
46.26386 -50.65
46.2972 -55.9
46.32747 -60.9
46.35632 -60.9
46.38549 -64.65
46.41521 -64.65
46.44854 -67.25
46.47688 -70.3
46.50677 -70.3
46.53606 -73.35
46.56462 -76.2
46.59796 -76.2
46.63105 -79.05
46.659 -81.45
46.68919 -81.45
46.71891 -83.65
46.75224 -87.35
46.77999 -87.35
46.81241 -90
46.84104 -90
46.87437 -93.05
46.9077 -95.85
46.93667 -95.85
46.96662 -98.7
46.99578 -105.25
47.02462 -105.25
47.05796 -111.8
47.08696 -111.8
47.11495 -118.15
47.14828 -122.75
47.18162 -122.75
47.21495 -128
47.24828 -132.55
47.27687 -132.55
47.30428 -136.7
47.33371 -136.7
47.36705 -140
47.3981 -143.7
47.43105 -143.7
47.46005 -147.45
47.49339 -150.9
47.52672 -150.9
47.55799 -153.75
47.58992 -155.3
47.61908 -155.3
47.65136 -156.6
47.68469 -157.25
47.71467 -157.25
47.74567 -157.5
47.77454 -157.5
47.80444 -157.5
47.83777 -157.25
47.87008 -157.25
47.89931 -156.6
47.92817 -154.85
47.95843 -154.85
47.99176 -151.35
48.02225 -145.9
48.05213 -145.9
48.08403 -141.1
48.11616 -141.1
48.14949 -136.05
48.17895 -133
48.20816 -133
48.23609 -131.7
48.26942 -130.4
48.30275 -130.4
48.33212 -129.75
48.36545 -129.75
48.39572 -128.85
48.42658 -128
48.45992 -128
48.48906 -125.35
48.51994 -122.75
48.55132 -122.75
48.58272 -119.9
48.61605 -117.05
48.64885 -117.05
48.67815 -113.55
48.70753 -110.5
48.73744 -110.5
48.77077 -106.6
48.7988 -106.6
48.82737 -102.85
48.85605 -97.6
48.8836 -97.6
48.91325 -90.85
48.94659 -90.85
48.97763 -84.5
49.01096 -76.45
49.0408 -76.45
49.06891 -68.8
49.10225 -60.9
49.13422 -60.9
49.16282 -53.95
49.19304 -43.9
49.2244 -43.9
49.25773 -35.6
49.29106 -24.2
49.32299 -24.2
49.35229 -13.95
49.38204 -13.95
49.41537 -0.4
49.44366 13.1
49.47391 13.1
49.50724 23.8
49.53664 31.2
49.56997 31.2
49.6021 39.75
49.63323 44.75
49.66208 44.75
49.69509 48.05
49.72842 56.1
49.76176 56.1
49.79248 69
49.82115 69
49.85032 83.2
49.88365 93.25
49.91489 93.25
49.94428 105.05
49.97586 115.95
50.00431 115.95
50.03765 126.9
50.06646 126.9
50.09589 141.75
50.12923 152
50.15976 152
50.1931 165.1
50.22641 178
50.25681 178
50.28561 189.6
50.31582 198.3
50.34916 198.3
50.38064 207.05
50.40921 207.05
50.43928 211.65
50.4699 215.8
50.50323 218.4
50.53197 218.4
50.55989 218.4
50.59182 218.4
50.62122 218.4
50.65455 218.4
50.68789 218.4
50.72102 218.4
50.74838 218.4
50.77942 218.4
50.81276 218.4
50.84098 218.4
50.87251 218.4
50.90448 218.4
50.93782 218.4
50.97115 218.4
51.00069 218.4
51.029 218.4
51.05986 218.4
51.08946 218.4
51.12279 218.4
51.15613 218.4
51.18946 218.4
51.22279 218.4
51.25494 218.4
51.28827 218.4
51.32161 218.4
51.35201 218.4
51.38174 218.4
51.41022 218.4
51.44356 218.4
51.47239 218.4
51.50221 218.4
51.53178 218.4
51.56224 218.4
51.59557 218.4
51.62445 218.4
51.65661 218.4
51.68516 218.4
51.71849 218.4
51.75183 218.4
51.78015 218.4
51.81131 218.4
51.84225 218.4
51.87069 218.4
51.90402 218.4
51.93353 218.4
51.9656 218.4
51.99506 218.4
52.02375 218.4
52.05709 218.4
52.09042 218.4
52.12375 218.4
52.15284 218.4
52.18443 218.4
52.21776 218.4
52.24671 218.4
52.28004 218.4
52.31261 218.4
52.34362 218.4
52.37695 218.4
52.4069 218.4
52.43737 218.4
52.46969 218.4
52.50099 218.4
52.53432 218.4
52.56561 218.4
52.59845 218.4
52.62864 218.4
52.65819 218.4
52.69152 218.4
52.72028 218.4
52.75361 218.4
52.78493 218.4
52.81431 218.4
52.84764 218.4
52.88097 218.4
52.90887 218.4
52.93989 218.4
52.97322 218.4
53.00655 218.4
53.03835 218.4
53.06821 218.4
53.10014 218.4
53.12907 218
53.16241 218.4
53.19574 218.4
53.22403 218.2
53.25285 218
53.28618 218
53.31951 215.6
53.35284 212.1
53.38459 212.1
53.4179 204.9
53.44735 195.5
53.48069 195.5
53.51402 185.85
53.54436 171.25
53.57463 171.25
53.60324 158.55
53.63657 158.55
53.6652 145.25
53.69504 131.9
53.72383 131.9
53.75716 119.45
53.7905 106.35
53.81831 106.35
53.84653 83.65
53.8758 83.65
53.90545 62.65
53.93878 41.7
53.97211 41.7
54.00145 25.1
54.0298 9.35
54.06176 9.35
54.09509 0.4
54.12843 -14.4
54.15787 -14.4
54.18697 -30.55
54.2203 -42.55
54.25363 -42.55
54.28553 -51.1
54.31852 -62.25
54.35185 -62.25
54.38123 -72.95
54.41456 -81.65
54.44386 -81.65
54.47406 -92.6
54.50514 -92.6
54.53502 -103.5
54.56835 -112.25
54.59631 -112.25
54.62564 -124.5
54.65698 -131.9
54.68552 -131.9
54.71885 -140.85
54.74877 -140.85
54.77805 -148.75
54.80669 -152.65
54.84003 -152.65
54.87336 -155.5
54.90393 -163.8
54.93444 -163.8
54.96296 -172.75
54.99551 -172.75
55.02884 -182.4
55.05747 -190.45
55.09028 -190.45
55.12361 -200.05
55.15694 -209.45
55.19028 -209.45
55.22223 -217.55
55.25056 -218.4
55.28202 -218.4
55.31295 -218.4
55.34628 -218.4
55.3775 -218.4
55.41084 -218.4
55.43924 -218.4
55.46978 -218.4
55.50312 -218.4
55.53548 -218.4
55.56882 -218.4
55.59761 -218.4
55.62796 -218.4
55.66129 -218.4
55.69017 -218.4
55.71885 -218.4
55.74751 -218.4
55.77614 -218.4
55.80947 -218.4
55.84281 -218.4
55.87215 -218.4
55.9042 -218.4
55.93626 -218.4
55.96959 -218.4
55.99831 -218.4
56.02758 -218.4
56.05672 -218.4
56.08516 -218.4
56.11849 -218.4
56.147 -218.4
56.17847 -218.4
56.20949 -218.4
56.24282 -218.4
56.27615 -218.4
56.30949 -218.4
56.33835 -218.4
56.36924 -218.4
56.39903 -218.4
56.43237 -218.4
56.46084 -218.4
56.49417 -218.4
56.526 -218.4
56.55635 -218.4
56.58969 -218.4
56.61855 -218.4
56.64951 -218.4
56.68085 -218.4
56.71135 -218.4
56.74468 -218.4
56.77387 -218.4
56.805 -218.4
56.83465 -218.4
56.86786 -218.4
56.9012 -218.4
56.93005 -218.4
56.95953 -218.4
56.98893 -218.4
57.02068 -218.4
57.05402 -218.4
57.08735 -218.4
57.11574 -218.4
57.14907 -218.4
57.18241 -218.4
57.21574 -218.4
57.24874 -218.4
57.27875 -218.4
57.30942 -218.4
57.34202 -218.4
57.37535 -218.4
57.4038 -218.4
57.43713 -218.4
57.46671 -218.4
57.49768 -218.4
57.53102 -218.4
57.56076 -218.4
57.58918 -218.4
57.61814 -218.4
57.64986 -218.4
57.68319 -218.4
57.71243 -218.4
57.74513 -218.4
57.77371 -218.4
57.80704 -218.4
57.84037 -218.4
57.86924 -218.4
57.89961 -218.4
57.92819 -218.4
57.96152 -218.4
57.99485 -218.4
58.0251 -218.4
58.05827 -218.4
58.08988 -218.4
58.12159 -218.4
58.15493 -218.4
58.18826 -218.4
58.21843 -218.4
58.24832 -218.4
58.27938 -218.4
58.31271 -218.4
58.34327 -218.4
58.37286 -218.4
58.40135 -218.4
58.42947 -218.4
58.4628 -218.4
58.49493 -218.4
58.52427 -218.4
58.5575 -218.4
58.58674 -218.4
58.62008 -218.4
58.65341 -218.4
58.68674 -218.4
58.71457 -218.4
58.74791 -218.4
58.78124 -218.4
58.80973 -218.4
58.84306 -218.4
58.87112 -218.4
58.8984 -218.4
58.93174 -218.4
58.96115 -218.4
58.99448 -218.4
59.02337 -218.4
59.05238 -218.4
59.08572 -218.4
59.11475 -218.4
59.14473 -218.4
59.17156 -218.4
59.20162 -218.4
59.2314 -216.9
59.26473 -216.9
59.29374 -213.85
59.32298 -209.05
59.35134 -209.05
59.38467 -203.35
59.418 -194.15
59.44592 -194.15
59.4743 -188.05
59.50505 -188.05
59.53839 -181.5
59.57172 -177.15
59.60021 -177.15
59.63354 -176.5
59.66497 -176.5
59.69403 -176.5
59.72737 -176.9
59.75654 -177.15
59.78478 -177.15
59.8139 -177.8
59.84358 -177.8
59.87691 -177.8
59.90731 -177.8
59.93573 -177.8
59.96907 -177.8
59.99958 -176.7
60.03291 -176.7
60.06404 -171.25
60.09636 -161.65
60.1268 -161.65
60.15604 -152
60.18937 -152
60.22213 -142.6
60.25546 -132.15
60.28802 -132.15
60.32129 -126.65
60.35462 -122.75
60.38217 -117.05
60.41081 -117.05
60.44154 -110.95
60.46994 -110.95
60.50327 -105.9
60.5366 -100
60.56382 -100
60.59343 -94.8
60.62677 -88.45
60.6601 -88.45
60.69192 -83.4
60.72472 -81.9
60.7571 -81.9
60.78637 -77.3
60.81971 -70.95
60.849 -70.95
60.87963 -65.3
60.91297 -58.95
60.94512 -58.95
60.97845 -53.95
61.00772 -53.95
61.03738 -51.1
61.06917 -50.2
61.09891 -50.2
61.13224 -50.2
61.16558 -49.8
61.19891 -49.8
61.22953 -48.7
61.26228 -46.3
61.29561 -46.3
61.32367 -43
61.35365 -43
61.38308 -39.75
61.41451 -37.75
61.44784 -37.75
61.47653 -33.85
61.50342 -29.05
61.53187 -29.05
61.56244 -24.2
61.59577 -20.5
61.6291 -20.5
61.66243 -16.8
61.69349 -11.35
61.72569 -11.35
61.75902 -7.6
61.78727 -3.25
61.8206 -3.25
61.8539 0.65
61.88441 2.4
61.91774 2.4
61.94831 3.05
61.9807 3.7
62.00934 3.7
62.04134 4.8
62.07467 4.8
62.10353 6.1
62.13311 7.6
62.16644 7.6
62.19864 7.85
62.23197 7.85
62.26167 7.85
62.29043 8.3
62.32017 8.3
62.34871 8.3
62.38204 7.85
62.41073 7.85
62.44096 6.55
62.47081 4.8
62.50124 4.8
62.53457 2.8
62.5665 2.8
62.59488 1.05
62.62355 0.85
62.65561 0.85
62.68894 1.3
62.71721 1.95
62.74638 1.95
62.77553 3.05
62.80345 3.05
62.83558 3.7
62.86892 4.15
62.89681 4.15
62.92771 3.7
62.96104 2.8
62.99013 2.8
63.02346 1.7
63.05242 1.7
63.08298 0.65
63.11353 -1.95
63.14386 -1.95
63.17719 -4.8
63.2075 -4.8
63.23938 -6.95
63.2687 -8.5
63.29768 -8.5
63.33101 -8.5
63.36134 -7.6
63.3942 -7.6
63.42456 -6.55
63.45213 -6.55
63.48547 -6.3
63.51523 -6.3
63.5475 -6.3
63.57608 -6.55
63.60721 -6.75
63.64054 -6.75
63.67025 -7.2
63.70123 -7.4
63.73457 -7.4
63.76451 -8.05
63.79784 -8.5
63.83118 -8.5
63.86153 -8.7
63.89486 -8.95
63.92316 -8.95
63.9565 -8.95
63.98609 -8.95
64.01942 -8.95
64.05275 -8.95
64.0835 -8.95
64.11684 -8.95
64.1477 -8.95
64.18103 -8.95
64.2095 -8.7
64.23972 -8.05
64.27306 -8.05
64.30318 -7.4
64.33244 -7.4
64.36227 -6.55
64.38994 -6.1
64.42327 -6.1
64.45377 -6.1
64.48394 -6.1
64.51238 -6.1
64.54564 -6.1
64.57898 -6.1
64.61137 -6.1
64.6412 -6.1
64.67022 -6.1
64.69981 -6.1
64.73315 -6.1
64.76339 -6.1
64.79456 -6.1
64.8279 -6.1
64.8577 -6.1
64.89103 -6.1
64.92009 -5.85
64.95249 -5.85
64.98582 -5.2
65.01658 -3.9
65.04991 -3.9
65.08042 -2.8
65.10921 -2.15
65.13858 -2.15
65.16895 -1.7
65.20229 -1.7
65.23128 -1.05
65.26116 -0.65
65.29209 -0.65
65.32317 0.2
65.35651 0.85
65.38437 0.85
65.4162 1.5
65.44745 1.95
65.47822 1.95
65.51155 2.15
65.54225 2.6
65.57558 2.6
65.60507 3.05
65.63488 3.05
65.66821 3.45
65.69678 4.15
65.72941 4.15
65.75893 5.2
65.78903 6.1
65.82236 6.1
65.85198 6.3
65.88201 6.55
65.91478 6.55
65.94653 6.95
65.97986 7.6
66.01319 7.6
66.04256 8.95
66.07146 8.95
66.10379 10
66.13712 11.1
66.16827 11.1
66.19767 11.55
66.22881 12.2
66.2589 12.2
66.29224 12.65
66.32557 13.5
66.35772 13.5
66.39105 14.15
66.42211 14.6
66.45544 14.6
66.48473 15.25
66.51678 15.9
66.5454 15.9
66.57462 16.35
66.60795 16.8
66.63677 16.8
66.67011 17.45
66.6985 17.45
66.73183 18.55
66.76517 20.3
66.79454 21.8
66.82787 21.8
66.8574 23.15
66.89053 23.15
66.92387 23.8
66.9572 24
66.99053 24.2
67.02386 24.2
67.0572 24.2
67.08547 24.2
67.11349 24.2
67.14384 24.2
67.17353 24.2
67.20686 24.2
67.23601 24.65
67.26935 25.3
67.29732 25.3
67.32618 25.75
67.35951 26.2
67.3877 26.2
67.41701 26.2
67.44918 26.2
67.47881 26.2
67.51214 26.2
67.54259 26.2
67.57157 25.95
67.60379 25.55
67.63287 25.55
67.6662 24.9
67.69698 23.8
67.72588 23.8
67.75921 22.9
67.78802 22.9
67.82136 22.25
67.84938 22.25
67.87921 22.25
67.91116 22.25
67.94242 22.25
67.97575 22.25
68.00443 22.25
68.03394 22.25
68.06674 22.25
68.09576 22.05
68.12859 22.05
68.16192 21.4
68.19084 20.3
68.21903 20.3
68.25101 19.2
68.28435 17.65
68.31493 17.65
68.34438 16.6
68.37377 16.6
68.40395 15.7
68.43729 15.05
68.46578 15.05
68.4969 14.4
68.52997 13.5
68.56049 13.5
68.59383 12.2
68.62293 11.1
68.6522 11.1
68.68215 9.35
68.71548 8.05
68.74882 8.05
68.78215 7.2
68.8113 7.2
68.84228 7.2
68.87186 7.2
68.90519 7.2
68.93554 7.2
68.96636 7.2
68.99969 7.2
69.02991 6.95
69.06325 6.3
69.09235 6.3
69.12556 4.8
69.15331 1.95
69.18664 1.95
69.21997 -0.65
69.24689 -3.25
69.28022 -3.25
69.31045 -5
69.33853 -6.1
69.37186 -6.1
69.40161 -6.55
69.42991 -6.55
69.46324 -6.55
69.49657 -6.55
69.52991 -6.55
69.56316 -6.55
69.59406 -6.55
69.62335 -6.55
69.6544 -6.55
69.68774 -6.55
69.71553 -6.55
69.74393 -6.55
69.77365 -6.75
69.80314 -6.75
69.83647 -7.85
69.86623 -8.7
69.89492 -8.7
69.92351 -11.1
69.95286 -11.1
69.98619 -12.45
70.01534 -13.5
70.04543 -13.5
70.07877 -13.5
70.10916 -13.5
70.1425 -13.5
70.17285 -13.5
70.20221 -13.5
70.23138 -13.5
70.26472 -13.5
70.29805 -13.5
70.32843 -13.5
70.35575 -13.5
70.38562 -13.5
70.41727 -13.5
70.4506 -13.5
70.48185 -13.5
70.51199 -13.5
70.53945 -13.5
70.57207 -13.5
70.6054 -13.5
70.63303 -13.5
70.66637 -13.5
70.69884 -13.5
70.72721 -13.1
70.76054 -12.85
70.78944 -12.85
70.81719 -12.2
70.85052 -11.75
70.87897 -11.75
70.9123 -11.55
70.94124 -11.35
70.96967 -11.35
70.99742 -11.1
71.02945 -11.1
71.06278 -11.1
71.09492 -10.45
71.12536 -10.45
71.15869 -9.6
71.18769 -8.3
71.22102 -6.75
71.24889 -6.75
71.2774 -5.65
71.30724 -5.65
71.33741 -4.35
71.37074 -3.05
71.3987 -3.05
71.42805 -2.4
71.46062 -2.4
71.48944 -1.7
71.52277 -1.3
71.55146 -1.3
71.5802 -1.05
71.60984 -0.65
71.64317 -0.65
71.67651 -0.4
71.70984 0.2
71.73895 0.2
71.77086 0.85
71.80263 1.5
71.83596 1.5
71.86404 2.15
71.89228 2.15
71.92097 3.05
71.95082 3.9
71.98402 3.9
72.01119 4.55
72.04453 5.45
72.07335 5.45
72.1018 6.3
72.13513 6.3
72.16454 6.95
72.19408 7.6
72.22741 7.6
72.25961 8.3
72.29294 8.7
72.32219 8.7
72.35182 9.35
72.37994 9.35
72.40899 10.25
72.44232 11.55
72.47351 11.55
72.50318 12.2
72.53419 12.2
72.56752 12.65
72.60085 12.65
72.63419 12.65
72.66534 12.65
72.69868 12.65
72.7271 12.65
72.76044 12.65
72.79011 12.65
72.81923 12.65
72.85256 12.65
72.88229 12.65
72.91563 12.65
72.9433 12.65
72.97663 12.65
73.00765 12.65
73.03497 12.65
73.0683 12.65
73.10163 12.65
73.12873 12.65
73.15857 12.65
73.18877 12.65
73.22211 12.65
73.25376 12.65
73.28275 12.65
73.31197 12.65
73.34433 12.65
73.37766 12.65
73.40733 12.65
73.43541 12.65
73.46693 12.65
73.49452 12.65
73.52785 12.85
73.55558 13.3
73.58344 13.3
73.61459 13.5
73.64323 13.75
73.67656 13.75
73.70448 13.75
73.73275 13.75
73.76099 13.75
73.79159 13.95
73.82492 13.95
73.85298 14.4
73.88423 14.85
73.9174 14.85
73.9482 15.5
73.98154 15.9
74.00994 15.9
74.04156 16.35
74.0731 16.35
74.10365 16.6
74.13699 16.8
74.16528 16.8
74.19334 16.8
74.22408 16.8
74.25417 16.8
74.2875 16.8
74.31891 17
74.34929 17
74.38017 17.25
74.40987 17.25
74.44321 17.25
74.47517 17.25
74.50497 17.25
74.53471 17.25
74.56804 17.25
74.60137 17
74.63008 17
74.65825 16.15
74.68761 16.15
74.71711 15.25
74.75044 13.95
74.77802 13.95
74.80829 12.85
74.84158 12.85
74.87358 11.55
74.90689 10.25
74.93526 10.25
74.96378 9.15
74.9945 9.15
75.02783 8.7
75.06116 8.05
75.0945 8.05
75.12328 7.4
75.15416 6.55
75.18276 6.55
75.21609 5.45
75.24371 5.45
75.27265 3.9
75.3021 2.6
75.33102 2.6
75.36435 1.5
75.39466 0.4
75.42784 0.4
75.46038 -0.4
75.49371 -0.85
75.52705 -1.3
75.5554 -1.3
75.58744 -1.7
75.61488 -1.7
75.64305 -3.05
75.67638 -4.15
75.70814 -4.15
75.73563 -5.2
75.76404 -5.2
75.79427 -6.95
75.82761 -8.05
75.86095 -8.05
75.89079 -8.95
75.91888 -9.35
75.95222 -9.35
75.98555 -9.8
76.01888 -9.8
76.04881 -9.8
76.07734 -10
76.10678 -10
76.14011 -10
76.1685 -10
76.19967 -10
76.22824 -10
76.26157 -10
76.29491 -10
76.32388 -10
76.35264 -9.6
76.38249 -9.6
76.41154 -9.35
76.44487 -8.5
76.47821 -8.5
76.50793 -7.4
76.53571 -7.4
76.564 -6.75
76.59733 -6.1
76.62411 -6.1
76.65516 -5.65
76.68849 -5.65
76.71652 -5.65
76.74986 -5.65
76.78038 -5.65
76.80865 -5.65
76.84199 -5.45
76.87304 -5.45
76.90628 -5.2
76.93961 -4.35
76.97286 -4.35
77.00056 -3.25
77.0339 -2.4
77.06723 -2.4
77.0957 -1.7
77.12904 -1.5
77.15794 -1.5
77.18652 -1.3
77.21986 -1.3
77.24886 -1.3
77.27571 -1.3
77.30393 -1.3
77.33282 -1.3
77.36616 -1.3
77.39949 -1.3
77.42753 -1.3
77.46086 -1.3
77.49003 -1.05
77.52336 -0.65
77.55669 -0.65
77.58533 0.4
77.61649 1.5
77.64982 1.5
77.67805 3.05
77.71139 4.15
77.74107 4.15
77.77078 4.8
77.79955 4.8
77.8272 4.8
77.86053 4.8
77.89355 4.8
77.92351 4.55
77.95684 4.55
77.99017 4.55
78.02351 4.15
78.05254 3.7
78.08587 3.7
78.1192 3.05
78.15253 1.95
78.18587 1.95
78.21564 1.05
78.24436 1.05
78.27419 -0.65
78.30273 -2.15
78.33607 -2.15
78.36485 -3.45
78.39817 -4.55
78.43117 -4.55
78.45999 -5.45
78.49332 -5.45
78.52611 -6.3
78.55477 -6.3
78.58357 -6.3
78.61513 -6.3
78.64846 -6.3
78.67647 -6.3
78.7098 -6.3
78.73965 -6.3
78.77171 -6.3
78.80505 -6.1
78.83502 -6.1
78.863 -5.45
78.89212 -4.8
78.92545 -4.8
78.95879 -3.9
78.98842 -3.25
79.0178 -3.25
79.04875 -2.8
79.07829 -2.8
79.11162 -2.8
79.13985 -2.8
79.16833 -2.8
79.19789 -2.8
79.22817 -2.8
79.26151 -2.8
79.29039 -2.8
79.31989 -2.8
79.35323 -2.8
79.38656 -2.8
79.41989 -2.8
79.44852 -2.8
79.47974 -2.8
79.50954 -2.8
79.53931 -2.8
79.57265 -2.8
79.60212 -2.8
79.63535 -2.8
79.66869 -2.8
79.70029 -2.8
79.73363 -2.8
79.76696 -2.8
79.79887 -2.8
79.82815 -2.8
79.85751 -2.8
79.89085 -2.8
79.92418 -2.8
79.95296 -2.8
79.98611 -2.8
80.01804 -2.8
80.05137 -2.8
80.0828 -2.8
80.11414 -2.8
80.14198 -2.8
80.17081 -2.8
80.20415 -2.8
80.23372 -2.8
80.26705 -2.8
80.30038 -2.8
80.33372 -2.8
80.36705 -2.8
80.39606 -2.8
80.42889 -2.8
80.45822 -2.8
80.4872 -2.8
80.52054 -2.8
80.54885 -2.8
80.57797 -2.8
80.61131 -2.8
80.63891 -2.8
80.67225 -2.8
80.70558 -2.8
80.73891 -2.8
80.77225 -2.8
80.80394 -2.8
80.83728 -2.8
80.86618 -2.8
80.89951 -2.4
80.92677 -2.4
80.9601 -1.95
80.99343 -1.05
81.02086 -1.05
81.05281 -0.2
81.08199 0.85
81.11156 0.85
81.14489 1.5
81.17401 2.4
81.20309 2.4
81.23454 3.45
81.26646 3.45
81.29979 4.55
81.32946 5.65
81.35839 5.65
81.38813 6.75
81.41813 6.75
81.45146 7.2
81.47966 7.2
81.51005 7.2
81.53889 7.2
81.57223 7.2
81.60556 7.2
81.63773 7.2
81.66589 7.2
81.69923 7.2
81.72778 7.2
81.76111 7.2
81.78979 7.2
81.81904 8.05
81.84633 8.05
81.87582 8.95
81.90582 8.95
81.93915 10.7
81.96807 11.75
81.9995 11.75
82.02946 12.65
82.05804 12.65
82.09138 13.1
82.12471 13.3
82.15758 13.3
82.19091 13.3
82.21879 13.3
82.25212 13.5
82.28165 13.5
82.31418 14.15
82.34462 14.15
82.37363 15.05
82.40696 16.6
82.43629 16.6
82.4659 17.9
82.49467 17.9
82.52632 18.75
82.55965 19.2
82.58788 19.2
82.61924 19.2
82.64777 19.2
82.67612 19.2
82.70945 19.2
82.73807 19.2
82.76649 19.2
82.79666 19.2
82.8252 19.2
82.85797 19.2
82.89065 19.2
82.91932 19.2
82.94675 19.2
82.97762 19.2
83.01095 19.2
83.04045 19.2
83.07139 19.2
83.10338 19.2
83.13178 19.2
83.16512 19.2
83.19712 19.2
83.22665 19.2
83.25954 19.2
83.28949 19.2
83.32282 19.2
83.3523 19.2
83.38124 19.2
83.41074 19.2
83.44041 19.2
83.47375 19.2
83.50318 19.2
83.53342 19.2
83.5642 19.2
83.59321 19.2
83.62654 19.2
83.657 19.2
83.68947 19.2
83.72281 19.2
83.75317 19.2
83.78651 19.2
83.81706 19.2
83.84499 19.2
83.87259 19.2
83.9014 19.2
83.93473 19.2
83.96251 19.2
83.99584 19.2
84.0229 19.2
84.05133 19.2
84.08466 19.2
84.11305 19.2
84.14265 19.2
84.17097 19.2
84.2043 19.2
84.23763 19.2
84.27077 19.2
84.30069 19.2
84.32915 19.2
84.35793 19.85
84.39127 19.85
84.41855 21.15
84.44884 21.15
84.47812 22.25
84.51145 23.15
84.54478 23.15
84.57812 23.35
84.60629 23.35
84.63441 23.35
84.6657 23.35
84.69903 23.35
84.7287 23.35
84.75666 23.35
84.78999 23.35
84.82333 23.35
84.85666 23.35
84.88628 23.35
84.91647 23.35
84.94637 23.35
84.97971 23.35
85.01304 23.35
85.04374 23.35
85.07147 23.35
85.10135 23.35
85.13468 23.35
85.16801 23.35
85.20023 23.15
85.23145 22.9
85.2616 22.9
85.29494 22.7
85.32827 22.5
85.35583 22.5
85.38551 22.25
85.41582 22.25
85.44399 22.25
85.47733 22.25
85.5066 22.25
85.53458 22.25
85.56474 22.25
85.593 22.25
85.62579 22.25
85.65913 22.25
85.69246 22.25
85.71991 22.25
85.75324 22.25
85.78658 22.25
85.81991 22.25
85.85222 22.25
85.88051 22.25
85.90783 22.25
85.93736 22.25
85.9707 22.25
85.9984 22.25
86.02811 22.25
86.06145 22.25
86.09005 22.25
86.12338 22.5
86.15451 22.5
86.18241 22.5
86.21251 22.9
86.24584 23.55
86.27917 23.55
86.30885 24
86.33707 24
86.36559 24.45
86.39554 24.9
86.42887 24.9
86.45722 25.1
86.48569 25.1
86.51903 25.1
86.54733 25.1
86.58067 25.1
86.61039 25.1
86.64333 25.1
86.67136 25.1
86.7047 25.1
86.73803 25.1
86.76912 25.1
86.80167 25.1
86.83032 25.1
86.86366 25.1
86.89699 25.1
86.92471 25.1
86.95377 25.1
86.98179 25.1
87.01053 25.1
87.04386 25.1
87.07439 25.1
87.10715 25.1
87.13802 25.1
87.17136 25.1
87.2047 25.1
87.23431 25.1
87.26561 25.1
87.29773 25.1
87.32994 25.1
87.36327 25.1
87.39661 25.1
87.42994 25.1
87.46327 25.1
87.49416 25.1
87.5275 25.1
87.55744 25.1
87.58701 25.1
87.61758 25.1
87.65015 25.1
87.68349 25.1
87.71252 25.1
87.74103 25.1
87.76887 25.1
87.79744 25.1
87.82567 25.1
87.859 25.1
87.88706 24.9
87.91611 24.9
87.94408 24.9
87.97554 24.9
88.00887 24.65
88.03996 24.65
88.06841 24.65
88.09859 24.65
88.12665 24.65
88.15998 24.65
88.19019 24.65
88.221 24.65
88.25027 24.65
88.28361 24.65
88.31694 24.65
88.34639 24.65
88.37926 24.65
88.4101 24.65
88.43997 24.65
88.4733 24.65
88.5034 24.65
88.53673 24.65
88.5666 24.65
88.59645 24.65
88.62978 24.65
88.66312 24.65
88.69012 24.65
88.72128 24.65
88.75247 24.65
88.7858 24.65
88.81692 24.65
88.84605 24.65
88.87653 24.65
88.90804 24.65
88.94138 24.65
88.97392 24.65
89.00725 24.65
89.03764 24.65
89.06551 24.65
89.09884 24.65
89.12971 24.65
89.15858 24.65
89.18832 24.65
89.21822 24.65
89.25156 24.65
89.284 24.65
89.31319 24.65
89.34107 24.65
89.3728 24.65
89.40613 24.65
89.43726 24.65
89.46599 24.65
89.49542 24.65
89.52504 24.65
89.55837 24.65
89.58897 24.65
89.61816 24.65
89.65083 24.65
89.6825 24.65
89.71584 24.65
89.74479 24.65
89.77327 24.65
89.8066 24.65
89.83493 24.65
89.86827 24.65
89.89901 24.65
89.92796 24.65
89.95699 24.65
89.98721 24.65
90.02055 24.65
90.05388 24.65
90.08598 24.65
90.11539 24.65
90.14744 24.65
90.18077 24.65
90.21186 24.65
90.24406 24.65
90.27739 24.65
90.30719 24.65
90.34053 24.65
90.36888 24.65
90.40221 24.65
90.43226 24.65
90.46064 24.65
90.49397 24.65
90.52493 24.65
90.55827 24.65
90.59161 24.65
90.6241 24.65
90.65743 24.65
90.68695 24.65
90.71734 24.65
90.74664 24.45
90.77806 24.45
90.81139 23.55
90.84473 22.5
90.87572 22.5
90.90906 20.05
90.93764 17.45
90.97097 14.4
91.0005 14.4
91.02859 12.2
91.0606 12.2
91.09393 9.8
91.12727 8.5
91.16061 7.2
91.18975 7.2
91.22102 5.45
91.25362 5.45
91.28696 3.25
91.31625 1.95
91.34814 1.95
91.37679 0.4
91.40858 -0.65
91.44191 -0.65
91.47088 -1.3
91.49942 -1.3
91.53201 -1.7
91.56135 -2.6
91.59468 -2.6
91.62801 -3.9
91.65822 -5.2
91.68883 -5.2
91.71827 -6.55
91.7516 -7.2
91.7812 -7.2
91.80958 -7.2
91.83922 -7.2
91.86902 -7.2
91.90235 -7.2
91.93568 -7.2
91.96326 -7.2
91.99483 -7.2
92.02473 -7.2
92.05807 -7.2
92.08647 -7.2
92.11717 -7.2
92.14507 -7.2
92.17426 -7.2
92.20759 -7.2
92.23607 -7.2
92.26609 -7.2
92.29942 -7.2
92.33276 -7.2
92.36609 -7.2
92.39534 -7.2
92.42748 -7.2
92.45618 -7.2
92.48512 -7.2
92.51846 -7.2
92.54848 -7.2
92.58011 -7.2
92.60864 -7.2
92.63848 -7.2
92.67182 -7.2
92.704 -7.2
92.73533 -7.2
92.76396 -7.2
92.79705 -7.2
92.83038 -7.2
92.86372 -7.2
92.89122 -7.2
92.92066 -7.2
92.95399 -7.2
92.98734 -7.2
93.02067 -7.2
93.04982 -7.2
93.08207 -7.2
93.1154 -7.2
93.14874 -7.2
93.18023 -7.2
93.21356 -7.2
93.24233 -7.2
93.27567 -7.2
93.309 -7.2
93.34008 -7.2
93.3681 -7.2
93.40011 -7.2
93.42992 -7.2
93.46325 -7.2
93.49658 -7.2
93.52949 -7.2
93.55779 -7.2
93.58803 -6.95
93.62136 -6.95
93.64987 -6.95
93.6832 -6.95
93.71292 -6.95
93.74097 -6.95
93.77431 -6.95
93.8042 -6.95
93.83753 -6.95
93.86864 -6.95
93.90198 -6.95
93.93531 -6.95
93.96678 -6.95
93.99937 -6.95
94.02994 -6.95
94.06328 -6.95
94.09661 -6.95
94.12994 -6.95
94.16289 -6.95
94.19177 -6.95
94.22413 -6.95
94.25746 -6.95
94.28686 -6.95
94.32019 -6.95
94.35326 -6.95
94.38338 -6.95
94.41673 -6.95
94.44637 -6.95
94.47971 -6.95
94.50786 -6.95
94.54076 -6.95
94.5741 -6.95
94.60237 -6.95
94.63252 -6.95
94.66361 -6.95
94.69695 -6.95
94.73028 -6.75
94.76238 -6.75
94.7907 -6.75
94.8198 -6.55
94.84903 -6.55
94.88236 -6.55
94.9157 -6.3
94.94807 -6.3
94.97829 -6.3
95.00755 -6.3
95.04088 -6.3
95.07418 -6.3
95.10323 -6.3
95.13605 -6.3
95.16939 -6.3
95.20272 -6.3
95.23567 -6.3
95.26888 -6.1
95.29966 -5.85
95.33299 -5.85
95.36633 -5.65
95.39661 -5.45
95.426 -5.45
95.45563 -5.45
95.48695 -5.45
95.52029 -5.45
95.54964 -5.2
95.58088 -5.2
95.61058 -5.2
95.64021 -5.2
95.67355 -5.2
95.70243 -5
95.73009 -5
95.75922 -4.8
95.78725 -4.8
95.81497 -4.55
95.8483 -4.55
95.88164 -4.55
95.90981 -4.55
95.93892 -4.55
95.97212 -4.55
96.00546 -4.55
96.03655 -4.55
96.06615 -4.55
96.09455 -4.55
96.12788 -4.55
96.16122 -4.55
96.19003 -4.55
96.22083 -4.55
96.25359 -4.55
96.28313 -4.55
96.31647 -4.55
96.34833 -4.55
96.37791 -4.55
96.40831 -4.55
96.43861 -4.55
96.47195 -4.55
96.50236 -4.55
96.53569 -4.55
96.56902 -4.55
96.60236 -4.55
96.63569 -4.55
96.66902 -4.55
96.70235 -4.55
96.73482 -4.55
96.7668 -4.55
96.80013 -4.55
96.83347 -4.55
96.86053 -4.55
96.89173 -4.55
96.92506 -4.55
96.9584 -4.55
96.99173 -4.55
97.02157 -4.55
97.05084 -4.55
97.08316 -4.55
97.11649 -4.55
97.14793 -4.55
97.1771 -4.55
97.21043 -4.55
97.23914 -4.55
97.27248 -4.55
97.3018 -4.55
97.33466 -4.55
97.36774 -4.55
97.401 -4.55
97.43433 -4.55
97.46516 -4.55
97.49567 -4.55
97.52719 -4.55
97.55676 -4.55
97.59009 -4.55
97.6184 -4.55
97.64914 -4.55
97.68004 -4.55
97.70865 -4.55
97.74198 -4.55
97.77531 -4.55
97.80447 -4.55
97.8335 -4.55
97.86358 -4.55
97.89691 -4.55
97.92648 -4.55
97.95628 -4.55
97.98597 -4.55
98.01457 -4.55
98.0479 -4.55
98.07853 -4.55
98.10783 -4.55
98.13866 -4.55
98.16732 -4.55
98.20065 -4.55
98.23116 -4.55
98.25874 -4.55
98.28838 -4.55
98.31785 -4.55
98.35118 -4.55
98.37972 -4.55
98.41035 -4.55
98.44146 -4.55
98.47087 -4.55
98.5042 -4.55
98.53465 -4.55
98.56576 -4.55
98.59909 -4.55
98.63136 -4.55
98.6647 -4.55
98.69289 -4.55
98.72446 -4.55
98.75399 -4.55
98.78453 -4.55
98.81786 -4.55
98.84648 -4.55
98.8761 -4.55
98.90587 -4.55
98.9392 -4.55
98.97253 -4.55
99.00345 -4.55
99.03579 -4.55
99.06634 -4.55
99.09415 -4.55
99.12749 -4.55
99.16082 -4.55
99.18951 -4.55
99.22284 -4.55
99.25166 -4.55
99.28499 -4.55
99.31442 -4.55
99.34776 -4.55
99.37699 -4.55
99.40701 -4.55
99.44034 -4.55
99.47005 -4.55
99.50338 -4.55
99.53423 -4.55
99.5648 -4.55
99.59813 -4.55
99.63146 -4.55
99.65881 -4.55
99.69214 -4.55
99.72115 -4.55
99.75449 -4.55
99.78782 -4.55
99.81794 -4.55
99.84749 -4.55
99.87854 -4.55
99.91187 -4.55
99.94118 -4.55
99.9724 -4.55
100.0057 -4.55
100.0332 -4.55
100.0666 -4.55
100.0956 -4.55
100.1231 -4.55
100.1537 -4.55
100.1835 -4.55
100.2169 -4.55
100.2496 -4.55
100.2829 -4.55
100.3111 -4.55
100.3434 -4.55
100.3767 -4.55
100.4042 -4.55
100.4363 -4.55
100.4682 -4.55
100.5006 -4.55
100.5339 -4.55
100.563 -4.55
100.5907 -4.55
100.6209 -4.55
100.6515 -4.55
100.6848 -4.55
100.7147 -4.55
100.748 -4.55
100.7761 -4.55
100.8087 -4.55
100.842 -4.55
100.8754 -4.55
100.9087 -4.55
100.9379 -4.55
100.9657 -4.55
100.9991 -4.55
101.0278 -4.55
101.0557 -4.55
101.0842 -4.55
101.1135 -4.55
101.1443 -4.55
101.1776 -4.55
101.2107 -4.55
101.2386 -4.55
101.2719 -4.55
101.3044 -4.55
101.3376 -4.55
101.3676 -4.55
101.3991 -4.55
101.4321 -4.55
101.462 -4.55
101.4954 -4.55
101.5287 -4.55
101.5588 -4.55
101.588 -4.55
101.6176 -4.55
101.651 -4.55
101.6809 -4.55
101.7142 -4.55
101.7427 -4.55
101.7732 -4.55
101.8065 -4.55
101.8399 -4.55
101.8706 -4.55
101.902 -4.55
101.9337 -4.55
101.9671 -4.55
101.9972 -4.55
102.0269 -4.55
102.0566 -4.55
102.09 -4.55
102.1233 -4.55
102.1566 -4.55
102.1899 -4.55
102.2184 -4.55
102.2517 -4.55
102.285 -4.55
102.3138 -4.55
102.3444 -4.55
102.3743 -4.55
102.4058 -4.55
102.4391 -4.55
102.4711 -4.55
102.5023 -4.55
102.5356 -4.55
102.5681 -4.55
102.6015 -4.55
102.6348 -4.55
102.6637 -4.55
102.6929 -4.55
102.7233 -4.55
102.7566 -4.55
102.7861 -4.55
102.8194 -4.55
102.8511 -4.55
102.8829 -4.55
102.9162 -4.55
102.9456 -4.55
102.9764 -4.55
103.0061 -4.55
103.039 -4.55
103.0724 -4.55
103.1019 -4.55
103.1299 -4.55
103.1632 -4.55
103.1965 -4.55
103.2299 -4.55
103.262 -4.55
103.2909 -4.55
103.3206 -4.55
103.3535 -4.55
103.3868 -4.55
103.4154 -4.55
103.4477 -4.55
103.4775 -4.55
103.5061 -4.55
103.5395 -4.55
103.5728 -4.55
103.6061 -4.55
103.6395 -4.55
103.6686 -4.55
103.7019 -4.55
103.7352 -4.55
103.7635 -4.55
103.7942 -4.55
103.8267 -4.55
103.86 -4.55
103.8907 -4.55
103.9241 -4.55
103.9538 -4.55
103.9827 -4.55
104.016 -4.55
104.0464 -4.55
104.0761 -4.55
104.1056 -4.55
104.139 -4.55
104.1723 -4.55
104.2056 -4.55
104.2352 -4.55
104.2641 -4.55
104.2936 -4.55
104.327 -4.55
104.3589 -4.55
104.3923 -4.55
104.4229 -4.55
104.4562 -4.55
104.4895 -4.55
104.5229 -4.55
104.553 -4.55
104.5864 -4.55
104.6189 -4.55
104.6522 -4.55
104.6827 -4.55
104.7152 -4.55
104.7437 -4.55
104.7768 -4.55
104.8102 -4.55
104.8386 -4.55
104.872 -4.55
104.9038 -4.55
104.9327 -4.55
104.966 -4.55
104.9977 -4.55
105.0287 -4.55
105.058 -4.55
105.0913 -4.55
105.1247 -4.55
105.154 -4.55
105.186 -4.55
105.2183 -4.55
105.2516 -4.55
105.285 -4.55
105.314 -4.55
105.344 -4.55
105.3754 -4.55
105.4049 -4.55
105.4382 -4.55
105.4702 -4.55
105.5023 -4.55
105.5332 -4.55
105.5658 -4.55
105.5992 -4.55
105.6315 -4.55
105.6633 -4.55
105.6928 -4.55
105.7223 -4.55
105.7556 -4.55
105.7876 -4.55
105.8208 -4.55
105.8505 -4.55
105.8831 -4.55
105.9164 -4.55
105.9462 -4.55
105.9754 -4.55
106.0067 -4.55
106.0401 -4.55
106.0734 -4.55
106.1033 -4.55
106.1366 -4.55
106.1699 -4.55
106.1995 -4.55
106.2329 -4.55
106.2627 -4.55
106.2948 -4.55
106.3256 -4.55
106.3589 -4.55
106.3923 -4.55
106.4249 -4.55
106.454 -4.55
106.483 -4.55
106.5141 -4.55
106.5474 -4.55
106.5794 -4.55
106.609 -4.55
106.6424 -4.55
106.6716 -4.55
106.705 -4.55
106.7383 -4.55
106.7715 -4.55
106.8044 -4.55
106.8377 -4.55
106.8711 -4.55
106.9035 -4.8
106.9357 -4.8
106.9664 -4.8
106.9971 -4.8
107.0304 -4.8
107.0629 -4.8
107.0913 -4.8
107.119 -4.8
107.1519 -4.8
107.1852 -4.8
107.2129 -4.8
107.2424 -4.8
107.2751 -4.8
107.3062 -4.8
107.3396 -4.8
107.372 -4.8
107.4003 -4.8
107.4322 -4.8
107.4655 -4.8
107.4988 -4.8
107.5322 -4.8
107.5616 -4.8
107.5898 -4.8
107.6231 -4.8
107.6565 -4.8
107.6898 -4.8
107.7227 -4.8
107.756 -4.8
107.7873 -4.8
107.8206 -4.8
107.8496 -4.8
107.8781 -4.8
107.9101 -4.8
107.9434 -4.8
107.9768 -4.8
108.0091 -4.8
108.0422 -4.8
108.0724 -4.8
108.1043 -4.8
108.1376 -4.8
108.171 -4.8
108.2043 -4.8
108.2331 -4.8
108.2635 -4.8
108.2968 -4.8
108.3257 -4.8
108.354 -4.8
108.3847 -4.8
108.4169 -4.8
108.4502 -4.8
108.4811 -4.8
108.5131 -4.8
108.5414 -4.8
108.5724 -4.8
108.6057 -4.8
108.6355 -4.8
108.6671 -4.8
108.7004 -4.8
108.7325 -4.8
108.7658 -4.8
108.7989 -4.8
108.8322 -4.8
108.8629 -4.8
108.8927 -4.8
108.926 -4.8
108.955 -4.8
108.9855 -4.8
109.0135 -4.8
109.0427 -4.8
109.076 -4.8
109.1041 -4.8
109.1374 -4.8
109.1672 -4.8
109.2005 -4.8
109.2339 -4.8
109.2634 -4.8
109.2909 -4.8
109.3204 -4.8
109.3502 -4.8
109.3835 -4.8
109.4121 -4.8
109.4435 -4.8
109.4768 -4.8
109.5087 -4.8
109.542 -4.8
109.5704 -4.8
109.5996 -4.8
109.6295 -4.8
109.6581 -4.8
109.6914 -4.8
109.7242 -4.8
109.7523 -4.8
109.783 -4.8
109.8132 -4.8
109.8465 -4.8
109.8799 -4.8
109.9132 -4.8
109.9421 -4.8
109.9724 -4.8
110.0057 -4.8
110.0335 -4.8
110.063 -4.8
110.0922 -4.8
110.1255 -4.8
110.1588 -4.8
110.1881 -4.8
110.216 -4.8
110.246 -4.8
110.276 -4.8
110.3093 -4.8
110.3425 -4.8
110.3729 -4.8
110.4038 -4.8
110.434 -4.8
110.4673 -4.8
110.496 -4.8
110.5248 -4.8
110.5546 -4.8
110.5844 -4.8
110.6177 -4.8
110.6498 -4.8
110.6806 -4.8
110.7098 -4.8
110.7432 -4.8
110.7765 -4.8
110.805 -4.8
110.8353 -4.8
110.8646 -4.8
110.8975 -4.8
110.9308 -4.8
110.9616 -4.8
110.9902 -4.8
111.0215 -4.8
111.0528 -4.8
111.0862 -4.8
111.1195 -4.8
111.1493 -4.8
111.1799 -4.8
111.2098 -4.8
111.2432 -4.8
111.2728 -4.8
111.3035 -4.8
111.3328 -4.8
111.365 -4.8
111.3983 -4.8
111.429 -4.8
111.4623 -4.8
111.4938 -4.8
111.5251 -4.8
111.5584 -4.8
111.5873 -4.8
111.6181 -4.8
111.6514 -4.8
111.6835 -4.8
111.7168 -4.8
111.7494 -4.8
111.7789 -4.8
111.8122 -4.8
111.8413 -4.8
111.8746 -4.8
111.9079 -4.8
111.9404 -4.8
111.9728 -4.8
112.0011 -4.8
112.0345 -4.8
112.0675 -4.8
112.0966 -4.8
112.1299 -4.8
112.1592 -4.8
112.1925 -4.8
112.2226 -4.8
112.2516 -4.8
112.2848 -4.8
112.3134 -4.8
112.3468 -4.8
112.375 -4.8
112.4084 -4.8
112.4392 -4.8
112.4676 -4.8
112.5009 -4.8
112.5302 -4.8
112.559 -4.8
112.5882 -4.8
112.6188 -4.8
112.6521 -4.8
112.6815 -4.8
112.7149 -4.8
112.7432 -4.8
112.7764 -4.8
112.8098 -4.8
112.8392 -4.8
112.8716 -4.8
112.9012 -4.8
112.9335 -4.8
112.9668 -4.8
112.9977 -4.8
113.0295 -4.8
113.0629 -4.8
113.0936 -4.8
113.1269 -4.8
113.158 -4.8
113.1875 -4.8
113.2179 -4.8
113.248 -4.8
113.2813 -4.8
113.3147 -4.8
113.3476 -4.8
113.3809 -4.8
113.4086 -4.8
113.4419 -4.8
113.4753 -4.8
113.5086 -4.8
113.5404 -4.8
113.5725 -4.8
113.6059 -4.8
113.6383 -4.8
113.6676 -4.8
113.6994 -4.8
113.7328 -4.8
113.7661 -4.8
113.7944 -4.8
113.8277 -4.8
113.858 -4.8
113.8866 -4.8
113.9199 -4.8
113.9502 -4.8
113.9812 -4.8
114.0146 -4.8
114.0439 -4.8
114.0773 -4.8
114.108 -4.8
114.1366 -4.8
114.1641 -4.8
114.1975 -4.8
114.2308 -4.8
114.26 -4.8
114.2933 -4.8
114.3244 -4.8
114.3572 -4.8
114.3906 -4.8
114.4203 -4.8
114.4496 -4.8
114.4817 -4.8
114.5108 -4.8
114.5441 -4.8
114.5774 -4.8
114.6108 -4.8
114.6391 -4.8
114.6697 -4.8
114.7031 -4.8
114.7364 -4.8
114.767 -4.8
114.7998 -4.8
114.8309 -4.8
114.8642 -4.8
114.8976 -4.8
114.9264 -4.8
114.9564 -4.8
114.9855 -4.8
115.0188 -4.8
115.0501 -4.8
115.083 -4.8
115.1108 -4.8
115.1441 -4.8
115.1774 -4.8
115.2098 -4.8
115.2407 -4.8
115.2698 -4.8
115.2986 -4.8
115.332 -4.8
115.3628 -4.8
115.3953 -4.8
115.4249 -4.8
115.4543 -4.8
115.4876 -4.8
115.5192 -4.8
115.549 -4.8
115.578 -4.8
115.6083 -4.8
115.6416 -4.8
115.6728 -4.8
115.7013 -4.8
115.7309 -4.8
115.7598 -4.8
115.7931 -4.8
115.8231 -4.8
115.8531 -4.8
115.8864 -4.8
115.9168 -4.8
115.9501 -4.8
115.9801 -4.8
116.0107 -4.8
116.0441 -4.8
116.0744 -4.8
116.1078 -4.8
116.1392 -4.8
116.1707 -4.8
116.2036 -4.8
116.2327 -4.8
116.2661 -4.8
116.2994 -4.8
116.3321 -4.8
116.362 -4.8
116.3953 -4.8
116.4286 -4.8
116.4582 -4.8
116.4877 -4.8
116.5174 -4.8
116.5482 -4.8
116.5816 -4.8
116.6149 -4.8
116.6455 -4.8
116.6783 -4.8
116.7062 -4.8
116.7396 -4.8
116.7708 -4.8
116.8041 -5.45
116.8349 -5.85
116.8665 -5.85
116.8999 -5.85
116.9332 -5.85
116.9618 -5.85
116.9926 -5.85
117.0243 -5.85
117.0576 -5.85
117.0868 -5.85
117.1198 -5.85
117.1498 -5.85
117.1783 -5.85
117.2116 -5.85
117.2406 -5.85
117.2694 -5.85
117.2992 -5.85
117.3325 -5.85
117.3659 -5.85
117.3961 -5.85
117.4268 -5.85
117.4562 -5.85
117.4882 -5.85
117.5215 -5.85
117.5508 -5.85
117.5799 -5.85
117.6094 -5.85
117.6383 -5.85
117.6716 -5.85
117.702 -5.85
117.7351 -5.85
117.7684 -5.85
117.8017 -5.85
117.8351 -5.85
117.8659 -5.85
117.8973 -5.85
117.9307 -5.85
117.964 -5.85
117.9973 -5.85
118.0246 -5.85
118.0579 -5.85
118.0889 -5.85
118.1167 -5.85
118.15 -5.85
118.1788 -5.85
118.2097 -5.85
118.243 -5.85
118.2716 -5.85
118.305 -5.85
118.3383 -5.85
118.3688 -5.85
118.4021 -5.85
118.4324 -5.85
118.4658 -5.85
118.4982 -5.85
118.5278 -5.85
118.5571 -5.85
118.5853 -5.85
118.6187 -5.85
118.652 -5.85
118.681 -5.85
118.7099 -5.85
118.7399 -5.85
118.7732 -5.85
118.8065 -5.85
118.8354 -5.85
118.8646 -5.85
118.8953 -5.85
118.9287 -5.85
118.9569 -5.85
118.9856 -5.85
119.019 -5.85
119.0523 -5.85
119.0856 -5.85
119.115 -5.85
119.1434 -5.85
119.1723 -5.85
119.2024 -5.85
119.2357 -5.85
119.2688 -5.85
119.2999 -5.85
119.3331 -5.85
119.3635 -5.85
119.3968 -5.85
119.4253 -5.85
119.4573 -5.85
119.4878 -5.85
119.5193 -5.85
119.5526 -5.85
119.5848 -5.85
119.6181 -5.85
119.6475 -5.85
119.6806 -5.85
119.7139 -5.85
119.7473 -5.85
119.7757 -5.85
119.8053 -5.85
119.8348 -5.85
119.8681 -5.85
119.9015 -5.85
119.9317 -5.85
119.9605 -5.85
119.9895 -5.85
120.0228 -5.85
120.0518 -5.85
120.08 -5.85
120.1094 -5.85
120.1405 -5.85
120.1738 -5.85
120.2025 -5.85
120.2359 -5.85
120.2657 -5.85
120.2962 -5.85
120.3295 -5.85
120.3628 -5.85
120.3932 -5.85
120.4252 -5.85
120.4585 -5.85
120.4918 -5.85
120.5252 -5.85
120.5584 -5.85
120.5917 -5.85
120.6226 -5.85
120.6559 -5.85
120.6866 -5.85
120.7147 -5.85
120.7453 -5.85
120.7747 -5.85
120.8081 -5.85
120.8355 -5.85
120.8671 -5.85
120.8965 -5.85
120.9282 -5.85
120.9616 -5.85
120.9933 -5.85
121.0262 -5.85
121.0569 -5.85
121.0882 -5.85
121.1215 -5.85
121.1546 -5.85
121.188 -5.85
121.2175 -5.85
121.2475 -5.85
121.2809 -5.85
121.3095 -5.85
121.3424 -5.85
121.3735 -5.85
121.4017 -5.85
121.435 -5.85
121.4665 -5.85
121.4956 -5.85
121.5247 -5.85
121.558 -5.85
121.5914 -5.85
121.624 -5.85
121.6531 -5.85
121.6809 -5.85
121.7131 -5.85
121.7464 -5.85
121.7791 -5.85
121.8124 -5.85
121.8413 -5.85
121.8747 -5.85
121.908 -5.85
121.9389 -5.85
121.9695 -5.85
121.9983 -5.85
122.0287 -5.85
122.062 -5.85
122.0925 -5.85
122.1248 -5.85
122.1572 -5.85
122.1862 -5.85
122.2196 -5.85
122.2478 -5.85
122.2771 -5.85
122.3105 -5.85
122.3396 -5.85
122.3729 -5.85
122.4062 -5.85
122.4335 -5.85
122.4649 -5.85
122.4938 -5.85
122.5271 -5.85
122.5554 -5.85
122.5859 -5.85
122.6142 -5.85
122.6475 -5.85
122.6808 -5.85
122.7089 -5.85
122.7383 -5.85
122.7679 -5.85
122.7981 -5.85
122.8314 -5.85
122.8641 -5.85
122.8975 -5.85
122.9308 -5.85
122.9613 -5.85
122.9947 -5.85
123.028 -5.85
123.0613 -5.85
123.0909 -5.85
123.1242 -5.85
123.1575 -5.85
123.1903 -5.85
123.2232 -5.85
123.252 -5.85
123.2805 -5.85
123.3139 -5.85
123.3432 -5.85
123.3714 -5.85
123.4007 -5.85
123.4303 -5.85
123.4636 -5.85
123.4928 -5.85
123.5216 -5.85
123.5503 -5.85
123.5836 -5.85
123.6169 -5.85
123.6448 -5.85
123.6781 -5.85
123.7115 -5.85
123.7394 -5.85
123.7728 -5.85
123.8021 -5.85
123.8324 -5.85
123.862 -5.85
123.8954 -5.85
123.9284 -5.85
123.9617 -5.85
123.9951 -5.85
124.0251 -5.85
124.0543 -5.85
124.0876 -5.85
124.1153 -5.85
124.1439 -5.85
124.1729 -5.85
124.2049 -5.85
124.2383 -5.85
124.2716 -5.85
124.3012 -5.85
124.3345 -5.85
124.3636 -5.85
124.3969 -5.85
124.4257 -5.85
124.456 -5.85
124.4845 -5.85
124.5178 -5.85
124.5512 -5.85
124.5845 -5.85
124.6135 -5.85
124.6427 -5.85
124.6756 -5.85
124.709 -5.85
124.7416 -5.85
124.7703 -5.85
124.8027 -5.85
124.8361 -5.85
124.8694 -5.85
124.9026 -5.85
124.9322 -5.85
124.9619 -5.85
124.9929 -5.85
125.0262 -5.85
125.0559 -5.85
125.087 -5.85
125.1178 -5.85
125.1511 -5.85
125.1844 -5.85
125.2155 -5.85
125.2454 -5.85
125.2751 -5.85
125.3082 -5.85
125.3415 -5.85
125.3749 -5.85
125.404 -5.85
125.4327 -5.85
125.466 -5.85
125.4994 -5.85
125.5309 -5.85
125.5612 -5.85
125.5903 -5.85
125.6183 -5.85
125.6516 -5.85
125.685 -5.85
125.7127 -5.85
125.7445 -5.85
125.7742 -5.85
125.8076 -5.85
125.8383 -5.85
125.8689 -5.85
125.8971 -5.85
125.9304 -5.85
125.9637 -5.85
125.9937 -5.85
126.0231 -5.85
126.0519 -5.85
126.0805 -5.85
126.1138 -5.85
126.1434 -5.85
126.1711 -5.85
126.2012 -5.85
126.2299 -5.85
126.2632 -5.85
126.2965 -5.85
126.3248 -5.85
126.3581 -5.85
126.3915 -5.85
126.4248 -5.85
126.4581 -5.85
126.4895 -5.85
126.519 -5.85
126.5475 -5.85
126.5808 -5.85
126.6124 -5.85
126.6457 -5.85
126.6741 -5.85
126.7033 -5.85
126.7367 -5.85
126.77 -5.85
126.8008 -5.85
126.8305 -5.85
126.8604 -5.85
126.8937 -5.85
126.9269 -5.85
126.9567 -5.85
126.9862 -5.85
127.0149 -5.85
127.0482 -5.85
127.077 -5.85
127.1061 -5.85
127.1379 -7.2
127.1679 -7.2
127.2013 -10.25
127.2306 -10.25
127.2637 -12.65
127.2915 -14.4
127.3215 -14.4
127.3549 -14.4
127.3842 -13.75
127.4149 -13.75
127.4448 -11.35
127.4755 -11.35
127.5088 -7.85
127.5384 -5.2
127.5666 -5.2
127.5999 -2.6
127.6333 -1.5
127.6666 -1.5
127.6999 -1.5
127.7317 -1.7
127.7598 -1.7
127.7894 -1.7
127.8227 -1.95
127.8531 -1.95
127.8831 -2.15
127.9123 -2.15
127.9431 -2.15
127.9764 -2.15
128.0098 -2.15
128.0372 -2.15
128.0666 -2.15
128.097 -2.15
128.1303 -2.15
128.1636 -2.15
128.1955 -2.15
128.2249 -2.15
128.2577 -2.15
128.291 -2.15
128.3188 -2.15
128.3497 -2.15
128.3831 -2.15
128.4164 -2.15
128.4497 -2.15
128.4789 -2.15
128.5105 -2.15
128.5439 -2.15
128.5766 -2.15
128.6099 -2.15
128.6386 -2.15
128.6688 -2.15
128.6967 -2.15
128.7267 -2.15
128.76 -2.15
128.7915 -2.15
128.8207 -2.15
128.8538 -2.15
128.8834 -2.15
128.9167 -2.15
128.9492 -2.15
128.9792 -2.15
129.0104 -2.15
129.0437 -2.15
129.077 -2.15
129.1104 -2.15
129.1418 -2.15
129.1704 -2.15
129.2031 -2.15
129.2364 -2.15
129.2642 -2.15
129.2975 -2.15
129.3297 -2.15
129.363 -2.15
129.3964 -2.15
129.4297 -2.15
129.458 -2.15
129.4876 -2.15
129.5164 -2.15
129.5497 -2.15
129.5783 -2.15
129.6117 -2.15
129.6426 -2.15
129.6759 -2.15
129.7092 -2.15
129.7405 -2.15
129.7694 -2.15
129.7994 -2.15
129.8282 -2.15
129.8615 -2.15
129.8948 -2.15
129.9246 -2.15
129.9573 -2.15
129.9886 -2.15
130.0219 -2.15
130.0552 -2.15
130.0852 -2.15
130.1155 -2.15
130.1448 -2.15
130.1781 -2.15
130.2059 -2.15
130.2354 -2.15
130.2676 -2.15
130.2957 -2.15
130.329 -2.15
130.3577 -2.15
130.3862 -2.15
130.4193 -2.15
130.4521 -2.15
130.4854 -2.15
130.5153 -2.15
130.5486 -2.15
130.5768 -2.15
130.6077 -2.15
130.641 -2.15
130.6735 -2.15
130.7029 -2.15
130.7326 -2.15
130.7656 -2.15
130.799 -2.15
130.83 -2.15
130.8593 -2.15
130.8894 -2.15
130.9227 -2.15
130.9561 -2.15
130.9881 -2.15
131.0215 -2.15
131.052 -2.15
131.0854 -2.15
131.1187 -2.15
131.1496 -2.15
131.1801 -2.15
131.209 -2.15
131.2395 -2.15
131.2728 -2.15
131.3036 -2.15
131.3359 -2.15
131.3686 -2.15
131.3987 -2.15
131.432 -2.15
131.4642 -2.15
131.4952 -2.15
131.5273 -2.15
131.5607 -2.15
131.594 -2.15
131.6239 -2.15
131.6534 -2.15
131.6839 -2.15
131.7138 -2.15
131.7472 -2.15
131.776 -2.15
131.8042 -2.15
131.8335 -2.15
131.8668 -2.15
131.9001 -2.15
131.9299 -2.15
131.9599 -2.15
131.9933 -2.15
132.0215 -2.15
132.0548 -2.15
132.0872 -2.15
132.1175 -2.15
132.1508 -2.15
132.1792 -2.15
132.2125 -2.15
132.242 -2.15
132.2715 -2.15
132.3009 -2.15
132.3309 -2.15
132.3643 -2.15
132.3976 -2.15
132.4283 -2.15
132.4616 -2.15
132.495 -2.15
132.5283 -2.15
132.5601 -2.15
132.5917 -2.15
132.6214 -2.15
132.6496 -2.15
132.6829 -2.15
132.7119 -2.15
132.7406 -2.15
132.7732 -2.15
132.8061 -2.15
132.8395 -2.15
132.8693 -2.15
132.8994 -2.15
132.9327 -2.15
132.9628 -2.15
132.9962 -2.15
133.0286 -2.15
133.0589 -2.15
133.0906 -2.15
133.1221 -2.15
133.1555 -2.15
133.1849 -2.15
133.2157 -2.15
133.2453 -2.15
133.2786 -2.15
133.312 -2.15
133.3414 -2.15
133.3702 -2.15
133.4014 -2.15
133.4348 -2.15
133.4681 -2.15
133.4968 -2.15
133.5302 -2.15
133.5611 -2.15
133.5944 -2.15
133.6277 -2.15
133.6579 -2.15
133.6913 -2.15
133.7208 -2.15
133.7508 -2.15
133.7841 -2.15
133.8131 -2.15
133.8464 -2.15
133.8748 -2.15
133.9071 -2.15
133.9404 -2.15
133.97 -2.15
133.9994 -2.15
134.0328 -2.15
134.0634 -2.15
134.0967 -2.15
134.1301 -2.15
134.1619 -2.15
134.1953 -2.15
134.2249 -2.15
134.2582 -2.15
134.287 -2.15
134.3161 -2.15
134.3452 -2.15
134.3763 -2.15
134.4097 -2.15
134.4388 -2.15
134.4721 -2.15
134.5042 -2.15
134.5325 -2.15
134.5659 -2.15
134.5992 -2.15
134.6278 -2.15
134.6568 -2.15
134.686 -2.15
134.7193 -2.15
134.7527 -2.15
134.7854 -2.15
134.8186 -2.15
134.85 -2.15
134.8833 -2.15
134.9116 -2.15
134.9401 -2.15
134.9692 -2.15
134.9993 -2.15
135.0327 -2.15
135.066 -2.15
135.0993 -2.15
135.1327 -2.15
135.166 -2.15
135.1993 -2.15
135.2301 -2.15
135.2616 -2.15
135.2905 -2.15
135.3206 -2.15
135.354 -2.15
135.3829 -2.15
135.413 -2.15
135.4438 -2.15
135.4771 -2.15
135.5104 -2.15
135.5394 -2.15
135.5677 -2.15
135.597 -2.15
135.6278 -2.15
135.6611 -2.15
135.6927 -2.15
135.7261 -2.15
135.7582 -2.15
135.7875 -2.15
135.8208 -2.15
135.8496 -2.15
135.8809 -2.15
135.9142 -2.15
135.9453 -2.15
135.9786 -2.15
136.008 -2.15
136.0413 -2.15
136.0703 -2.15
136.1037 -2.15
136.137 -2.15
136.1674 -2.15
136.2007 -2.15
136.234 -2.15
136.2673 -2.15
136.3007 -2.15
136.33 -2.15
136.3605 -2.15
136.3936 -2.4
136.4219 -2.6
136.4552 -2.8
136.4846 -2.8
136.5128 -3.05
136.5443 -3.05
136.5739 -3.05
136.6072 -3.05
136.6375 -3.05
136.6667 -3.05
136.6948 -3.05
136.7257 -3.05
136.759 -3.05
136.7894 -3.05
136.8214 -3.05
136.8517 -3.05
136.8816 -3.05
136.9149 -3.05
136.9446 -3.05
136.9769 -3.05
137.0088 -3.05
137.0422 -3.05
137.0755 -3.05
137.107 -3.05
137.1372 -3.05
137.1651 -3.05
137.1984 -3.05
137.2318 -3.05
137.2637 -3.05
137.2938 -3.05
137.3231 -3.05
137.353 -3.05
137.3864 -3.05
137.4197 -3.05
137.4478 -3.05
137.4767 -3.05
137.5055 -3.05
137.5388 -3.05
137.5721 -3.05
137.6021 -3.05
137.6341 -3.05
137.6648 -3.05
137.6982 -3.05
137.7251 -3.05
137.7543 -3.05
137.7877 -3.7
137.8173 -4.15
137.8506 -4.15
137.8806 -4.8
137.9091 -5.45
137.9405 -5.45
137.9733 -5.85
138.0067 -6.3
138.039 -6.3
138.0682 -6.95
138.1006 -6.95
138.1297 -8.05
138.1631 -9.35
138.1919 -9.35
138.2238 -10.9
138.2536 -12.45
138.2864 -12.45
138.3198 -13.5
138.3531 -14.6
138.3834 -14.6
138.4123 -15.5
138.4441 -16.15
138.4774 -16.15
138.5064 -16.15
138.5392 -16.15
138.5726 -16.15
138.6059 -16.15
138.6392 -16.15
138.6683 -16.15
138.6985 -16.35
138.73 -16.35
138.7592 -16.6
138.7926 -17.25
138.8245 -17.25
138.8538 -17.9
138.8842 -18.3
138.9176 -18.3
138.9509 -18.75
138.983 -18.75
139.0134 -18.75
139.0414 -18.75
139.0704 -18.75
139.1037 -18.75
139.1328 -18.75
139.1654 -18.75
139.1951 -18.75
139.224 -18.75
139.2573 -18.75
139.2871 -18.75
139.3144 -18.75
139.3444 -18.75
139.3774 -18.75
139.4108 -18.75
139.4404 -18.75
139.4731 -18.75
139.5055 -18.75
139.538 -19
139.5713 -19.4
139.6026 -20.05
139.6315 -20.05
139.6605 -20.75
139.6885 -20.75
139.7219 -21.6
139.7514 -22.05
139.7793 -22.05
139.8093 -22.5
139.8414 -22.9
139.8747 -22.9
139.9034 -22.9
139.9367 -22.9
139.97 -22.9
139.9982 -22.9
140.0315 -22.9
140.0603 -22.9
140.0911 -22.9
140.1244 -22.9
140.1548 -22.9
140.1881 -22.9
140.2215 -22.9
140.2492 -22.9
140.2793 -22.9
140.3127 -22.9
140.346 -22.9
140.3766 -22.9
140.4099 -22.5
140.442 -22.5
140.4712 -21.8
140.5046 -20.75
140.5379 -20.75
140.5675 -19.85
140.6 -19.85
140.6302 -19
140.6635 -17.9
140.6941 -17.9
140.7272 -17.25
140.7591 -16.8
140.7925 -16.8
140.8258 -16.35
140.8591 -16.15
140.892 -16.15
140.9194 -16.15
140.9498 -16.15
140.9831 -16.15
141.0116 -16.15
141.04 -16.15
141.0728 -16.15
141.1031 -16.15
141.1364 -16.15
141.1698 -16.15
141.2031 -16.15
141.2333 -15.7
141.2639 -15.7
141.2972 -15.25
141.3263 -14.85
141.3596 -14.85
141.3901 -14.4
141.421 -14.4
141.4543 -13.75
141.4877 -13.1
141.5168 -13.1
141.5462 -12
141.5751 -10.9
141.6084 -10.9
141.6371 -10.25
141.6667 -10.25
141.6975 -8.3
141.7308 -6.75
141.7641 -5
141.7934 -5
141.8223 -3.7
141.8511 -3.7
141.881 -3.05
141.9143 -2.6
141.9421 -2.6
141.9733 -2.4
142.0037 -2.4
142.0335 -2.4
142.0669 -2.4
142.1002 -2.4
142.1291 -2.4
142.1593 -2.4
142.1898 -2.4
142.2232 -2.4
142.2529 -2.4
142.2863 -2.4
142.3182 -2.4
142.349 -2.4
142.3824 -2.4
142.41 -2.15
142.4412 -1.7
142.4736 -1.7
142.507 -1.3
142.5403 -0.85
142.573 -0.85
142.6063 -0.85
142.6396 -0.85
142.6729 -0.85
142.7063 -0.85
142.7396 -0.85
142.7684 -0.85
142.7983 -0.85
142.8313 -0.85
142.8646 -0.85
142.8973 -0.85
142.9259 -0.85
142.9579 -0.85
142.9912 -0.85
143.0246 -0.85
143.0553 -0.85
143.0872 -0.85
143.1164 -0.65
143.1465 -0.65
143.1799 -0.2
143.2094 0.4
143.2419 0.4
143.2717 0.85
143.3041 0.85
143.3375 1.3
143.3669 1.7
143.3983 1.7
143.4314 2.15
143.4609 2.6
143.4942 3.45
143.5242 3.45
143.5549 4.35
143.5858 4.35
143.6161 5.2
143.6494 6.1
143.6827 6.1
143.7118 6.95
143.7408 7.2
143.7742 7.2
143.8075 7.4
143.8383 7.4
143.8716 7.4
143.9026 7.4
143.9333 7.4
143.9666 7.4
143.9958 7.6
144.0257 8.05
144.0571 8.05
144.0894 8.7
144.1228 8.7
144.1561 9.35
144.1867 10
144.22 10.25
144.2534 10.25
144.2867 10.25
144.3162 10.25
144.346 10.25
144.3782 10.25
144.409 10.25
144.4423 10.25
144.4757 10.25
144.5072 10.25
144.5405 10.45
144.5705 10.7
144.6038 11.1
144.6332 11.1
144.6622 11.55
144.6911 11.55
144.7202 11.55
144.7535 11.75
144.7836 11.75
144.817 11.75
144.8491 11.75
144.8803 11.75
144.9136 11.75
144.9469 11.75
144.978 11.75
145.007 11.75
145.0369 11.75
145.0702 11.75
145.1022 11.75
145.1322 11.75
145.1645 11.55
145.1978 11.55
145.2312 11.35
145.2593 11.35
145.2886 11.1
145.3219 11.1
145.3524 10.9
145.3858 10.7
145.4166 10.7
145.4447 10.7
145.4748 10.7
145.5059 10.7
145.5392 10.9
145.5695 10.9
145.5997 11.1
145.6286 11.35
145.6619 11.35
145.6952 11.35
145.724 11.35
145.7538 11.35
145.7855 11.35
145.8147 11.35
145.8481 11.35
145.8814 11.35
145.9093 11.35
145.9396 11.1
145.9692 10.7
146.0025 10.7
146.0359 9.6
146.0653 8.5
146.097 8.5
146.1288 6.75
146.1621 5
146.1902 5
146.219 2.6
146.2493 2.6
146.2805 0
146.3138 -2.4
146.3423 -2.4
146.3756 -4.15
146.409 -5.45
146.4421 -6.1
146.4754 -6.1
146.5048 -6.3
146.5368 -6.3
146.5668 -6.3
146.5969 -6.3
146.6302 -6.3
146.6582 -6.3
146.6885 -6.75
146.7205 -6.75
146.7526 -7.85
146.7859 -9.35
146.8162 -9.35
146.8454 -10.45
146.8744 -10.45
146.9036 -11.35
146.9369 -11.75
146.9703 -11.75
147.0036 -12.2
147.0369 -12.2
147.0684 -12.2
147.1017 -12.2
147.1311 -12.2
147.1614 -12.2
147.1947 -12.2
147.2242 -12.2
147.2575 -12.2
147.2868 -12.45
147.3164 -12.45
147.3465 -12.65
147.3762 -12.85
147.4095 -12.85
147.439 -13.1
147.4683 -13.3
147.4998 -13.3
147.5292 -13.3
147.5625 -13.3
147.5913 -13.3
147.6229 -13.3
147.6528 -13.3
147.6854 -13.3
147.7188 -13.3
147.7497 -13.3
147.7798 -13.75
147.81 -14.4
147.842 -14.4
147.8752 -14.6
147.9074 -14.6
147.9363 -15.05
147.9654 -15.05
147.9959 -15.05
148.0292 -15.05
148.0575 -15.05
148.0908 -15.05
148.1197 -15.05
148.1517 -15.05
148.185 -15.05
148.2183 -14.6
148.2484 -13.3
148.2794 -13.3
148.3097 -11.55
148.343 -10
148.3764 -10
148.4064 -8.05
148.4397 -8.05
148.4694 -6.3
148.5027 -5
148.5329 -5
148.5641 -4.35
148.5929 -4.35
148.6262 -4.35
148.6595 -4.35
148.6892 -3.9
148.7226 -3.9
148.7528 -3.05
148.7846 -1.7
148.8179 -1.7
148.8466 -0.4
148.88 1.05
148.9133 1.05
148.9447 1.7
148.978 2.6
149.0063 2.6
149.0352 3.25
149.0685 3.25
149.101 4.15
149.1344 4.8
149.1669 4.8
149.1956 5.45
149.2245 6.3
149.2578 6.3
149.2911 6.75
149.3212 8.05
149.3508 8.05
149.3793 9.15
149.4127 9.15
149.446 9.8
149.478 10
149.5087 10
149.5421 10
149.5712 10
149.6045 10
149.6354 10
149.6668 10
149.6984 10
149.7274 10.25
149.7608 10.45
149.7917 10.45
149.8238 11.75
149.8545 12.65
149.8878 12.65
149.9211 13.3
149.9544 13.75
149.9876 13.75
150.0191 13.75
150.0525 13.75
150.0858 13.75
150.1171 13.75
150.1455 13.75
150.1789 13.75
150.2103 13.75
150.2436 13.75
150.2746 13.95
150.3079 13.95
150.3413 14.4
150.3746 14.6
150.4079 14.6
150.4401 14.85
150.4698 15.05
150.4984 15.05
150.5317 15.05
150.565 15.05
150.5983 15.05
150.627 15.05
150.6558 15.05
150.6885 15.05
150.7219 15.05
150.7546 14.85
150.788 14.6
150.8191 14.6
150.8524 14.15
150.8858 13.75
150.9191 13.3
150.9524 13.3
150.9858 12.65
151.0191 12
151.0524 12
151.0858 10.45
151.1191 8.7
151.1524 6.75
151.1858 4.35
151.2191 4.35
151.2524 2.4
151.2858 -0.4
151.3191 -0.4
151.3524 -2.15
151.3858 -4.15
151.4191 -5.45
151.4524 -6.75
151.4858 -6.75
151.5191 -7.6
151.5523 -8.05
151.5856 -8.05
151.619 -8.05
151.6522 -8.05
151.6856 -8.05
151.7189 -8.05
151.7522 -8.05
151.7856 -8.05
151.8189 -8.5
151.8522 -8.5
151.8856 -8.95
151.918 -9.35
151.9513 -9.35
151.9846 -9.6
152.0144 -9.8
152.0478 -9.8
152.0811 -9.8
152.1098 -10.25
152.1396 -11.35
152.1717 -11.35
152.205 -12.2
152.2384 -13.5
152.2693 -13.5
152.2999 -14.4
152.33 -14.4
152.3594 -15.7
152.3927 -16.15
152.4261 -16.15
152.4594 -16.35
152.4891 -16.35
152.5182 -16.35
152.5516 -16.35
152.5803 -16.35
152.6099 -16.35
152.6389 -16.35
152.6704 -16.35
152.7038 -16.35
152.7335 -16.15
152.7668 -16.15
152.8002 -15.5
152.8335 -14.15
152.8668 -13.1
152.8993 -13.1
152.9308 -11.35
152.9628 -9.8
152.9927 -9.8
153.0261 -7.85
153.0594 -6.3
153.0889 -6.3
153.1198 -4.15
153.1485 -2.8
153.1819 -2.8
153.2152 -1.3
153.2486 -0.2
153.2773 -0.2
153.3066 1.05
153.34 1.05
153.371 1.7
153.4043 1.95
153.4336 1.95
153.4669 1.95
153.5003 1.95
153.5336 1.95
153.5644 1.95
153.595 2.4
153.6237 2.4
153.657 3.25
153.6858 4.15
153.716 4.15
153.7479 5.2
153.778 5.2
153.8114 6.1
153.8447 6.55
153.8743 7.2
153.9057 7.2
153.935 7.85
153.9683 8.3
154.0017 8.3
154.035 8.95
154.0652 9.35
154.0932 9.35
154.1266 9.6
154.1599 9.6
154.187 10
154.2157 10.45
154.2442 10.45
154.2775 10.9
154.3105 11.35
154.3438 11.35
154.376 11.55
154.4066 12
154.4399 12.45
154.4698 12.45
154.4988 13.1
154.5321 13.1
154.5619 13.5
154.5953 13.95
154.6286 13.95
154.6612 14.4
154.6945 14.85
154.727 14.85
154.7603 15.25
154.7927 15.7
154.8214 15.7
154.8547 16.15
154.8837 16.15
154.9171 16.15
154.9504 16.15
154.9837 16.15
155.0145 16.15
155.0435 16.15
155.0768 16.15
155.1093 16.15
155.1375 16.15
155.1684 16.15
155.2017 16.15
155.2344 16.15
155.2641 16.15
155.293 16.15
155.3241 15.7
155.3549 15.25
155.3883 15.25
155.4198 14.85
155.4531 14.4
155.4818 14.4
155.5107 14.4
155.5441 14.4
155.5749 14.4
155.6031 14.4
155.6341 14.4
155.6644 14.4
155.6978 14.4
155.7311 14.4
155.761 14.6
155.7925 15.05
155.8217 15.05
155.855 15.25
155.8862 15.25
155.9189 15.7
155.9498 15.9
155.9832 15.9
156.0165 15.9
156.0473 15.9
156.0767 15.9
156.1066 15.9
156.1354 15.9
156.1688 15.9
156.1986 15.9
156.2319 15.9
156.2607 15.9
156.2909 15.9
156.3242 15.9
156.3524 15.5
156.3832 15.05
156.4141 15.05
156.446 13.95
156.4793 12.85
156.5126 12.85
156.5417 12.2
156.5747 11.75
156.6056 11.75
156.6389 11.55
156.6681 11.55
156.6997 11.55
156.7282 11.35
156.7574 11.35
156.7907 10.9
156.8237 10.7
156.8551 10.7
156.8835 10.25
156.9152 10
156.9485 10
156.9774 10
157.0081 10
157.037 10
157.0676 10
157.101 10
157.131 10
157.1643 9.6
157.1934 9.6
157.2268 8.5
157.2601 7.2
157.2889 7.2
157.3222 4.55
157.3522 1.5
157.3855 1.5
157.4188 -2.15
157.4501 -7.4
157.4834 -12
157.5121 -12
157.545 -14.85
157.5783 -16.8
157.6095 -16.8
157.6403 -18.55
157.6688 -18.55
157.6983 -20.75
157.7317 -22.5
157.7623 -22.5
157.7956 -23.8
157.825 -24.65
157.8547 -24.65
157.888 -25.75
157.9213 -26.65
157.9493 -26.65
157.9791 -27.5
158.0094 -27.5
158.0427 -28.6
158.076 -29.45
158.1061 -31.2
158.1394 -31.2
158.1695 -32.75
158.2029 -34.5
158.2333 -34.5
158.2621 -36
158.2954 -37.75
158.3269 -37.75
158.3602 -39.95
158.3908 -41.9
158.4184 -41.9
158.4472 -43.65
158.4805 -43.65
158.5138 -45.85
158.5444 -47.6
158.5767 -47.6
158.6049 -48.7
158.6359 -48.7
158.6692 -50
158.7025 -50.65
158.7341 -50.65
158.7648 -50.65
158.7981 -50.65
158.8315 -50.65
158.8611 -50.65
158.8888 -50.65
158.9177 -50.65
158.947 -50.65
158.9804 -50.65
159.0126 -50.65
159.0459 -50.45
159.0733 -50.45
159.1022 -49.15
159.1355 -46.5
159.1676 -43.45
159.201 -43.45
159.2343 -38.85
159.2661 -34.95
159.2994 -34.95
159.3278 -29.7
159.3612 -24.45
159.3945 -24.45
159.4278 -20.05
159.4612 -16.35
159.4895 -16.35
159.5229 -11.35
159.5539 -8.05
159.5839 -8.05
159.6172 -6.1
159.6505 -4.8
159.681 -4.8
159.7101 -2.6
159.7434 0
159.7767 0
159.8058 4.8
159.8362 9.6
159.8656 9.6
159.8984 13.5
159.9317 17.45
159.965 17.45
159.9983 20.3
160.0294 20.3
160.0593 23.8
160.0926 27.05
160.1252 27.05
160.1569 29.45
160.1903 31.65
160.2202 31.65
160.2535 33.4
160.2843 34.5
160.3139 34.5
160.345 35.6
160.3754 36.25
160.4088 36.25
160.4384 36.45
160.4706 36.45
160.4999 36.45
160.5292 36.45
160.5625 36.45
160.5928 36.45
160.6261 36.45
160.657 36.45
160.6896 36.65
160.723 37.1
160.7518 37.1
160.7814 38
160.8148 39.3
160.8455 39.3
160.8789 40.4
160.9122 41.5
160.9414 41.5
160.9741 41.9
161.0049 42.35
161.0383 42.35
161.0682 42.35
161.0972 42.35
161.1277 42.35
161.1558 42.15
161.1891 42.15
161.2182 41.5
161.2516 38.85
161.2799 38.85
161.3093 35.35
161.3426 29.05
161.373 29.05
161.4051 22.9
161.4384 22.9
161.4717 14.85
161.5051 7.6
161.5376 2.6
161.5668 2.6
161.5966 -0.85
161.6255 -0.85
161.6588 -1.95
161.69 -3.9
161.7189 -3.9
161.7499 -4.55
161.7807 -4.55
161.814 -4.8
161.8474 -4.8
161.8762 -4.8
161.9056 -5.2
161.9355 -6.3
161.9689 -6.3
161.9968 -8.5
162.0263 -10.7
162.0596 -10.7
162.0901 -12.65
162.1234 -14.15
162.1533 -14.15
162.1823 -16.15
162.213 -16.15
162.2427 -18.1
162.2761 -19.4
162.3047 -19.4
162.338 -21.15
162.3713 -22.7
162.4023 -22.7
162.4356 -25.1
162.4689 -26.85
162.4987 -27.95
162.5319 -27.95
162.5633 -27.95
162.5966 -27.95
162.6299 -27.95
162.6598 -27.95
162.6902 -27.5
162.7204 -27.5
162.7537 -25.95
162.7835 -25.95
162.8148 -23.15
162.8438 -20.05
162.8771 -20.05
162.9104 -16.8
162.9405 -14.15
162.9696 -14.15
163.0029 -11.75
163.0312 -10
163.0645 -10
163.094 -8.3
163.1273 -6.3
163.1601 -6.3
163.19 -5.45
163.2234 -4.55
163.2564 -4.55
163.2897 -3.45
163.3188 -3.45
163.3521 -1.5
163.3855 -0.2
163.4175 1.7
163.4465 1.7
163.4758 3.7
163.5049 3.7
163.5382 5.85
163.5687 6.95
163.5986 6.95
163.6295 7.6
163.6582 8.05
163.6916 8.05
163.724 8.3
163.7536 8.7
163.7835 8.7
163.8169 8.7
163.8502 8.95
163.8823 8.95
163.9157 9.35
163.9488 10
163.9789 10
164.0122 10.45
164.0455 10.7
164.0757 10.7
164.1061 10.9
164.1381 10.9
164.1714 11.1
164.203 11.55
164.2327 11.55
164.263 11.75
164.2928 12
164.3262 12
164.3551 12
164.3876 12
164.4205 12
164.4537 12
164.487 11.75
164.5203 11.55
164.549 11.55
164.5823 11.1
164.6134 11.1
164.6466 10.7
164.6767 10
164.709 10
164.7372 8.95
164.7697 7.85
164.803 7.85
164.8345 6.75
164.8629 6.75
164.8963 6.55
164.9296 6.55
164.9629 6.75
164.9961 6.75
165.0294 6.75
165.0628 7.2
165.0957 7.2
165.129 7.2
165.1624 7.2
165.1904 7.2
165.2185 7.2
165.2504 7.2
165.2837 7.2
165.3158 6.95
165.3449 6.95
165.375 6.1
165.4074 5
165.4407 5
165.474 3.7
165.504 2.8
165.5327 2.8
165.5631 1.95
165.5964 1.5
165.6275 1.5
165.6576 0.85
165.6875 0.85
165.7168 0.4
165.7501 0.4
165.7796 0.4
165.8086 0.4
165.84 0.4
165.8709 0.4
165.9042 0.4
165.9359 0.4
165.9671 0.4
165.9961 0.4
166.0266 0.4
166.0599 0.4
166.0933 0.4
166.123 0.4
166.1513 0.4
166.1818 0.4
166.2151 0.4
166.2484 0.65
166.2769 0.85
166.3089 0.85
166.3377 1.05
166.371 1.5
166.4028 1.5
166.4343 2.15
166.4676 3.45
166.5009 3.45
166.5343 5.2
166.5668 6.75
166.5952 6.75
166.6241 7.6
166.6568 8.3
166.6901 8.3
166.7215 9.15
166.7515 10.7
166.7848 10.7
166.8151 12.85
166.8484 14.4
166.8813 14.4
166.9117 16.35
166.945 18.1
166.9751 18.1
167.0084 20.05
167.0417 21.8
167.0731 21.8
167.1064 23.8
167.136 25.1
167.1694 25.1
167.201 26.2
167.2316 27.3
167.2637 27.3
167.297 28.6
167.3304 29.25
167.3596 29.25
167.3876 30.8
167.4171 30.8
167.4497 32.75
167.483 35.15
167.5132 35.15
167.545 37.75
167.5783 40.8
167.6087 40.8
167.642 44.1
167.6753 46.95
167.7072 46.95
167.7357 50.85
167.7637 54.8
167.797 54.8
167.8274 58.75
167.8607 58.75
167.8889 62.25
167.9197 65.95
167.953 65.95
167.9827 71.2
168.0114 77.1
168.0447 77.1
168.0764 79.95
168.1098 83.65
168.1431 83.65
168.1719 87.8
168.2033 87.8
168.2324 91.3
168.2657 95.45
168.2951 95.45
168.323 100
168.3517 104.15
168.3832 104.15
168.4165 108.3
168.4494 111.8
168.4812 111.8
168.5115 116.4
168.5414 116.4
168.5747 119.9
168.608 124.95
168.6414 128.85
168.6747 128.85
168.708 133.65
168.7413 139.15
168.7732 139.15
168.8023 144.6
168.8356 148.95
168.8672 148.95
168.9006 154.65
168.93 154.65
168.9584 158.8
168.9917 163.6
169.0214 163.6
169.0547 166.65
169.084 171.65
169.1142 171.65
169.1448 175.8
169.1734 175.8
169.2068 181.05
169.2365 186.1
169.2654 186.1
169.2987 190.45
169.3296 195.7
169.363 195.7
169.3928 200.95
169.4218 205.1
169.4509 205.1
169.483 210.35
169.5162 210.35
169.5466 214.95
169.578 218.4
169.6058 218.4
169.6392 218.4
169.6725 218.4
169.7013 218.4
169.7303 218.4
169.7598 218.4
169.7932 218.4
169.8265 218.4
169.8598 218.4
169.8887 218.4
169.9165 218.4
169.9455 218.4
169.9789 218.4
170.0071 218.2
170.0388 218.2
170.0668 218.2
170.1001 218
170.1335 218
170.1629 217.1
170.1931 217.1
170.2225 214.95
170.2559 211.65
170.2892 207.05
170.322 207.05
170.3506 202.7
170.3785 202.7
170.4101 196.6
170.4435 190.45
170.4731 190.45
170.5016 185.45
170.5304 185.45
170.5588 178.9
170.5921 173.4
170.6255 173.4
170.657 171
170.6903 168.6
170.7231 168.6
170.7564 162.3
170.7849 153.1
170.8164 153.1
170.8466 138.45
170.8755 138.45
170.9088 120.1
170.9405 105.05
170.9685 105.05
170.998 91.5
171.0282 77.95
171.0616 77.95
171.0909 62.9
171.119 62.9
171.1502 43.25
171.1793 27.3
171.2126 27.3
171.2416 11.55
171.2736 -7.2
171.3048 -7.2
171.3353 -18.3
171.3686 -18.3
171.3962 -20.5
171.4245 -23.8
171.4578 -23.8
171.4857 -32.75
171.519 -47.4
171.5515 -47.4
171.5796 -58.75
171.6087 -58.75
171.6383 -72.7
171.6716 -84.3
171.7027 -84.3
171.7346 -91.95
171.7665 -100.45
171.7998 -100.45
171.8331 -110.05
171.8632 -115.3
171.8937 -115.3
171.9237 -117.3
171.9564 -119.45
171.9898 -119.45
172.0231 -119.7
172.052 -119.45
172.0847 -119.45
172.1159 -119.45
172.1487 -120.1
172.1783 -120.1
172.2066 -121.65
172.2348 -124.7
172.2634 -124.7
172.2939 -126.9
172.3273 -126.9
172.3564 -129.3
172.3898 -130.6
172.4211 -130.6
172.4517 -131.9
172.485 -132.35
172.5182 -132.35
172.5463 -132.15
172.5796 -132.15
172.6067 -132.15
172.64 -131.9
172.6715 -131.25
172.7002 -131.25
172.7296 -130.6
172.7629 -129.3
172.7963 -129.3
172.8273 -128.4
172.8587 -128
172.8874 -128
172.918 -128
172.9514 -128.2
172.9797 -128.2
173.01 -129.5
173.0434 -129.5
173.072 -131.05
173.1053 -133.25
173.1387 -133.25
173.1715 -136.05
173.2032 -138.45
173.2337 -138.45
173.2671 -140.85
173.2954 -142.2
173.3265 -142.2
173.3551 -143.05
173.3852 -143.05
173.4185 -143.3
173.447 -143.3
173.4803 -143.3
173.5137 -143.3
173.5421 -143.3
173.5755 -143.3
173.6046 -143.3
173.6322 -143.3
173.6626 -143.3
173.6929 -143.3
173.7262 -143.3
173.7566 -143.3
173.7848 -143.3
173.8181 -143.3
173.8466 -143.3
173.8799 -143.3
173.9078 -143.3
173.9411 -143.3
173.9734 -142.85
174.0055 -142.85
174.0388 -142.2
174.0722 -141.1
174.1016 -141.1
174.1349 -140.85
174.1646 -140.85
174.1979 -140.85
174.2303 -140.85
174.2591 -140.85
174.2881 -140.85
174.3181 -140.85
174.3514 -140.85
174.3813 -140.85
174.4137 -140.85
174.4429 -140.85
174.4763 -140.65
174.5096 -139.8
174.5392 -139.8
174.5676 -138.45
174.601 -137.4
174.63 -137.4
174.6634 -135.65
174.6929 -135.65
174.722 -133.45
174.7527 -131.25
174.786 -131.25
174.8194 -128
174.8477 -124.95
174.8781 -124.95
174.9071 -121
174.9404 -121
174.9737 -117.3
175.0065 -112.7
175.0371 -112.7
175.0671 -109.4
175.1001 -105.05
175.1335 -105.05
175.1664 -100
175.1992 -95.65
175.2326 -95.65
175.2659 -89.55
175.2992 -83.85
175.3283 -75.8
175.3591 -75.8
175.3925 -65.95
175.4213 -65.95
175.4547 -57.65
175.4869 -47.15
175.516 -47.15
175.5461 -37.35
175.5757 -33.2
175.6091 -33.2
175.6376 -30.35
175.6691 -25.75
175.7008 -25.75
175.7333 -21.6
175.7666 -15.25
175.795 -15.25
175.8283 -8.7
175.8572 -8.7
175.8893 -1.5
175.9227 6.95
175.9556 6.95
175.9838 12.85
176.014 20.05
176.0437 20.05
176.0771 27.05
176.1104 33.4
176.1393 33.4
176.1685 39.75
176.1977 39.75
176.2311 48.7
176.2605 58.1
176.2934 58.1
176.3245 65.5
176.3578 74.45
176.3911 74.45
176.4245 80.6
176.4543 87.35
176.4876 87.35
176.5204 92.15
176.5538 95.45
176.5826 95.45
176.616 99.35
176.6493 107.45
176.6826 107.45
176.716 117.3
176.7454 128.65
176.7753 128.65
176.8084 137.4
176.8418 147.85
176.8751 147.85
176.9084 155.5
176.9383 159.9
176.9691 159.9
176.9999 167.5
177.0332 171.25
177.0658 171.25
177.0958 175.15
177.1292 178.45
177.1625 178.45
177.1958 180.65
177.2239 180.65
177.257 183.45
177.2882 185.85
177.3167 185.85
177.35 188.5
177.38 190.7
177.4089 190.7
177.4377 193.75
177.471 193.75
177.5043 196.8
177.5356 200.5
177.5653 200.5
177.5958 203.8
177.6258 207.5
177.6591 207.5
177.6902 211.85
177.7191 216.25
177.7492 216.25
177.7792 218.4
177.8125 218.4
177.8458 218.4
177.8762 218.4
177.9095 218.4
177.9395 218.4
177.9729 218.4
178.0028 218.4
178.0361 218.4
178.0694 218.4
178.1028 218.4
178.1361 218.4
178.166 218.4
178.1957 218.4
178.2264 218.4
178.2546 218.4
178.2879 218.4
178.3191 218.4
178.3521 218.4
178.3804 218.4
178.4111 218.4
178.4444 218.4
178.4745 218.4
178.5051 218.4
178.5346 218.4
178.5679 218.4
178.6013 218.4
178.6319 218.4
178.664 218.4
178.695 218.4
178.725 218.4
178.7583 218.4
178.7917 218.4
178.8219 218.4
178.8522 218.4
178.8834 218.4
178.9167 217.75
178.95 218
178.9829 218
179.0133 218.2
179.0444 218.2
179.0778 218.2
179.1087 218.2
179.142 218.2
179.1732 218.2
179.2031 217.75
179.2364 216.45
179.266 216.45
179.2942 213.2
179.3275 213.2
179.3608 208.15
179.3942 201.15
179.424 194.4
179.4547 194.4
179.4831 185.45
179.5129 185.45
179.5462 177.15
179.5748 164.45
179.6081 164.45
179.6414 154.65
179.6748 143.05
179.7081 143.05
179.7377 133.45
179.7655 125.35
179.7962 125.35
179.8291 121
179.8625 118.35
179.8938 118.35
179.9261 116.65
179.9578 116.65
179.9881 115.1
180.0215 111.15
180.0514 111.15
180.0808 103.95
180.1141 99.35
180.1426 99.35
180.1759 89.75
180.2092 84.5
180.241 78.85
180.2743 78.85
180.3055 75.35
180.3388 73.6
180.3687 73.6
180.402 72.5
180.4319 72.5
180.4652 70.95
180.4986 69.2
180.5319 66.8
180.5612 66.8
180.5924 63.55
180.623 63.55
180.6563 60.5
180.6859 57.65
180.7192 53.5
180.7498 53.5
180.7797 50
180.813 47.8
180.8449 47.8
180.8766 46.3
180.9068 46.3
180.9366 46.3
180.97 46.3
180.9991 46.3
181.0301 46.3
181.0597 46.3
181.0924 46.3
181.1258 46.3
181.1591 46.3
181.1924 46.3
181.2258 46.3
181.2591 45.85
181.2924 43
181.3226 43
181.3552 40.4
181.3849 40.4
181.4183 35.8
181.4516 32.1
181.4849 28.15
181.515 28.15
181.546 25.3
181.5774 25.3
181.6108 23.15
181.6428 21.15
181.673 21.15
181.7036 19.85
181.7334 18.75
181.7667 18.1
181.8001 18.1
181.8326 17.45
181.8625 17.45
181.8954 17
181.9287 16.35
181.9586 16.35
181.9916 15.5
182.0205 15.05
182.0514 15.05
182.0847 14.15
182.114 13.75
182.1437 13.75
182.1736 13.5
182.203 13.5
182.2363 13.5
182.2647 13.5
182.2961 13.5
182.3233 13.5
182.3567 13.5
182.39 14.15
182.4205 14.15
182.4505 17.25
182.4794 17.25
182.5116 20.5
182.5449 22.9
182.5744 22.9
182.6059 25.55
182.6351 28.35
182.6644 28.35
182.6978 30.1
182.7268 30.55
182.7601 30.55
182.7924 30.55
182.8234 30.55
182.8567 29.7
182.8875 27.95
182.9167 27.95
182.9488 24.65
182.9781 20.5
183.0115 20.5
183.0448 16.8
183.0752 12
183.1049 12
183.1383 7.6
183.1716 4.15
183.2004 4.15
183.2295 1.3
183.2626 1.3
183.2921 -1.7
183.3254 -3.45
183.3546 -3.45
183.3847 -4.15
183.415 -4.15
183.446 -4.15
183.4793 -3.9
183.5127 -3.7
183.5426 -3.7
183.5759 -3.45
183.6046 -3.45
183.638 -3.45
183.6678 -3.45
183.6978 -3.45
183.7267 -3.45
183.7558 -3.45
183.7891 -3.45
183.8184 -3.45
183.8488 -3.45
183.8819 -3.45
183.9111 -3.45
183.9445 -3.45
183.9769 -3.45
184.0092 -3.45
184.0387 -3.45
184.0706 -3.45
184.1039 -3.45
184.1373 -3.45
184.1706 -3.45
184.1982 -3.45
184.2316 -3.45
184.2649 -3.45
184.2938 -3.45
184.3261 -3.45
184.3594 -3.45
184.3928 -3.45
184.4261 -3.45
184.4591 -3.45
184.4898 -3.45
184.5231 -3.45
184.553 -3.45
184.5863 -3.45
184.6172 -3.45
184.6501 -3.45
184.6817 -3.45
184.7139 -3.45
184.7472 -3.45
184.7788 -3.45
184.81 -3.45
184.8433 -3.45
184.8766 -3.45
184.91 -3.45
184.9433 -3.45
184.973 -3.45
185.0023 -3.45
185.031 -3.45
185.0643 -3.45
185.0972 -3.45
185.1305 -3.45
185.1606 -3.45
185.1939 -3.45
185.2273 -3.45
185.2549 -3.45
185.2858 -3.45
185.3149 -3.45
185.3459 -3.45
185.3792 -3.45
185.412 -3.45
185.4393 -3.45
185.4709 -3.45
185.5042 -3.45
185.5375 -3.45
185.5708 -3.45
185.6016 -3.45
185.6296 -3.45
185.663 -3.45
185.6963 -3.45
185.724 -3.45
185.7538 -3.45
185.784 -3.45
185.8158 -3.45
185.8492 -3.45
185.8795 -3.45
185.9102 -3.45
185.9436 -3.45
185.9769 -3.45
186.0102 -3.45
186.04 -3.45
186.0701 -3.45
186.101 -3.45
186.13 -3.45
186.1634 -3.45
186.1916 -3.45
186.2205 -3.45
186.2498 -3.45
186.283 -3.45
186.3164 -3.45
186.3464 -3.45
186.3792 -3.45
186.4077 -3.45
186.4377 -3.45
186.471 -3.45
186.502 -3.45
186.5337 -3.45
186.5637 -3.45
186.597 -3.45
186.6304 -3.45
186.6611 -3.45
186.6944 -3.45
186.7276 -3.45
186.7609 -3.45
186.7943 -3.45
186.8272 -3.45
186.8559 -3.45
186.8868 -3.45
186.9167 -3.45
186.95 -3.45
186.9802 -3.45
187.0094 -3.45
187.0428 -3.45
187.0723 -3.45
187.1056 -3.45
187.1358 -3.45
187.1647 -3.45
187.193 -3.45
187.2232 -3.45
187.2565 -3.45
187.2889 -3.45
187.3176 -3.45
187.3491 -3.45
187.3824 -3.45
187.4158 -3.45
187.4491 -3.45
187.481 -3.45
187.5134 -3.45
187.5467 -3.45
187.5801 -3.45
187.6098 -3.45
187.6417 -3.45
187.6701 -3.45
187.6979 -3.45
187.7312 -3.45
187.7616 -3.45
187.791 -3.45
187.8243 -3.45
187.8577 -3.45
187.891 -3.45
187.9188 -3.45
187.9513 -3.45
187.9814 -3.45
188.0147 -3.45
188.048 -3.45
188.0812 -3.45
188.1095 -3.45
188.1386 -3.45
188.1666 -3.45
188.1999 -3.45
188.2295 -3.45
188.2585 -3.45
188.2864 -3.45
188.3192 -3.45
188.3526 -3.45
188.3858 -3.45
188.4184 -3.45
188.4509 -3.45
188.4828 -3.45
188.5161 -3.45
188.5438 -3.45
188.5728 -3.45
188.6061 -3.45
188.6352 -3.45
188.6685 -3.45
188.6978 -3.45
188.7253 -3.45
188.7545 -3.45
188.7843 -3.45
188.8176 -3.45
188.851 -3.45
188.8832 -3.45
188.9103 -3.45
188.9407 -3.45
188.974 -3.45
189.0029 -3.45
189.0331 -3.45
189.0656 -3.45
189.0969 -3.45
189.1302 -3.45
189.1635 -3.45
189.1951 -3.45
189.2246 -3.45
189.2554 -3.45
189.2888 -3.45
189.318 -3.45
189.3477 -3.45
189.3773 -3.45
189.4104 -3.45
189.4437 -3.45
189.477 -3.45
189.5051 -3.45
189.5384 -3.45
189.566 -3.45
189.5994 -3.45
189.6278 -3.45
189.6586 -3.45
189.69 -3.45
189.7233 -3.45
189.7567 -3.45
189.7859 -3.45
189.8155 -3.45
189.8474 -3.45
189.8785 -3.45
189.9118 -3.45
189.9399 -3.45
189.9727 -3.45
190.0061 -3.45
190.0373 -3.45
190.0706 -3.45
190.101 -3.45
190.129 -3.45
190.1603 -3.45
190.1936 -3.45
190.227 -3.45
190.2603 -3.45
190.2898 -3.45
190.3231 -3.45
190.3534 -3.45
190.3868 -3.45
190.4146 -3.45
190.4437 -3.45
190.477 -3.45
190.509 -3.45
190.5424 -3.45
190.571 -3.45
190.6005 -3.45
190.6314 -3.45
190.6596 -3.45
190.693 -3.45
190.7263 -3.45
190.7588 -3.45
190.7879 -3.45
190.8195 -3.45
190.8528 -3.45
190.8804 -3.45
190.9123 -3.45
190.9415 -3.45
190.9705 -3.45
191.0039 -3.45
191.0339 -3.45
191.0658 -3.45
191.095 -3.45
191.1251 -3.45
191.1584 -3.45
191.1891 -3.45
191.2185 -3.45
191.2517 -3.45
191.2824 -3.45
191.3158 -3.45
191.3471 -3.45
191.3773 -3.45
191.407 -3.45
191.438 -3.45
191.4713 -3.45
191.5046 -3.45
191.5331 -3.45
191.5606 -3.45
191.5934 -3.45
191.6267 -3.45
191.6557 -3.45
191.6841 -3.45
191.7175 -3.45
191.7455 -3.45
191.7788 -3.45
191.8121 -3.45
191.8413 -3.45
191.8746 -3.45
191.9066 -3.45
191.9399 -3.45
191.9694 -3.45
192.0028 -3.45
192.0322 -3.45
192.0655 -3.45
192.0988 -3.45
192.1321 -3.45
192.1608 -3.45
192.1892 -3.45
192.2225 -3.45
192.2559 -3.45
192.285 -3.45
192.3142 -3.45
192.3475 -3.45
192.3806 -3.45
192.414 -3.45
192.446 -3.45
192.4793 -3.45
192.5126 -3.45
192.5416 -3.45
192.575 -3.45
192.6075 -3.45
192.6408 -3.45
192.6691 -3.45
192.7024 -3.45
192.7357 -3.45
192.765 -3.45
192.7983 -3.45
192.8316 -3.45
192.861 -3.45
192.8943 -3.45
192.9272 -3.45
192.9601 -3.45
192.9886 -3.45
193.0178 -3.45
193.0512 -3.45
193.0829 -3.45
193.1109 -3.45
193.1402 -3.45
193.1703 -3.45
193.2036 -3.45
193.2334 -3.45
193.2629 -3.45
193.2939 -3.45
193.3272 -3.45
193.3606 -3.45
193.3911 -3.45
193.4234 -3.45
193.4526 -3.45
193.4836 -3.45
193.517 -3.45
193.5503 -3.45
193.578 -3.45
193.6054 -3.45
193.6374 -3.45
193.6707 -3.45
193.704 -3.45
193.7359 -3.45
193.7641 -3.45
193.7928 -3.45
193.8261 -3.45
193.8566 -3.45
193.8884 -3.45
193.9177 -3.45
193.9468 -3.45
193.9801 -3.45
194.0103 -3.45
194.0391 -3.45
194.0681 -3.45
194.1004 -3.45
194.1338 -3.45
194.1663 -3.45
194.1953 -3.45
194.2277 -3.45
194.2573 -3.45
194.2906 -3.45
194.3192 -3.45
194.3526 -3.45
194.382 -3.45
194.4113 -3.45
194.4447 -3.45
194.4727 -3.45
194.506 -3.45
194.5345 -3.45
194.5679 -3.45
194.6012 -3.45
194.6332 -3.45
194.6665 -3.45
194.6961 -3.45
194.7294 -3.45
194.7627 -3.45
194.792 -3.45
194.8242 -3.45
194.8576 -3.45
194.8857 -3.45
194.919 -3.45
194.949 -3.45
194.9781 -3.45
195.0102 -3.45
195.0407 -3.45
195.074 -3.45
195.1073 -3.45
195.1395 -3.45
195.1728 -3.45
195.2015 -3.45
195.2349 -3.45
195.2652 -3.45
195.296 -3.45
195.3293 -3.45
195.3583 -3.45
195.3916 -3.45
195.421 -3.45
195.4497 -3.45
195.4794 -3.45
195.5083 -3.45
195.5417 -3.45
195.5749 -3.45
195.6079 -3.45
195.6413 -3.45
195.672 -3.45
195.7053 -3.45
195.7357 -3.45
195.7654 -3.45
195.7934 -3.45
195.8223 -3.45
195.8557 -3.45
195.889 -3.45
195.9182 -3.45
195.9463 -3.45
195.9776 -3.45
196.0109 -3.45
196.0404 -3.45
196.0727 -3.45
196.1017 -3.45
196.1307 -3.45
196.164 -3.45
196.1974 -3.45
196.2275 -3.45
196.2608 -3.45
196.2899 -3.45
196.3233 -3.45
196.3542 -3.45
196.3844 -3.45
196.4153 -3.45
196.4486 -3.45
196.4819 -3.45
196.5103 -3.45
196.5394 -3.45
196.5683 -3.45
196.5972 -3.45
196.6306 -3.45
196.6601 -3.45
196.6929 -3.45
196.7221 -3.45
196.7511 -3.45
196.7845 -3.45
196.816 -3.45
196.8441 -3.45
196.8718 -3.45
196.9009 -3.45
196.9343 -3.45
196.967 -3.45
197.0003 -3.45
197.0289 -3.45
197.059 -3.45
197.0924 -3.45
197.1257 -3.45
197.155 -3.45
197.1846 -3.45
197.2179 -3.45
197.2509 -3.45
197.2841 -3.45
197.3129 -3.45
197.3412 -3.45
197.3745 -3.45
197.4079 -3.45
197.4412 -3.45
197.4745 -3.45
197.5079 -3.45
197.5412 -3.45
197.5746 -3.45
197.6079 -3.45
197.6399 -3.45
197.6732 -3.45
197.7066 -3.45
197.7388 -3.45
197.7689 -3.45
197.8022 -3.45
197.8356 -3.45
197.8677 -3.45
197.9011 -3.45
197.9322 -3.45
197.9641 -3.45
197.9975 -3.45
198.0267 -3.45
198.0591 -3.45
198.091 -3.45
198.1244 -3.45
198.1577 -3.45
198.191 -3.45
198.2244 -3.45
198.2549 -3.45
198.2852 -3.45
198.3185 -3.45
198.3519 -3.45
198.3834 -3.45
198.4152 -3.45
198.4447 -3.45
198.4781 -3.45
198.5068 -3.45
198.5357 -3.45
198.569 -3.45
198.597 -3.45
198.6304 -3.45
198.6637 -3.45
198.6946 -3.45
198.7279 -3.45
198.7569 -3.45
198.7902 -3.45
198.8188 -3.45
198.8476 -3.45
198.8797 -3.45
198.9094 -3.45
198.9427 -3.45
198.9751 -3.45
199.0058 -3.45
199.0392 -3.45
199.0725 -3.45
199.1058 -3.45
199.1367 -3.45
199.1658 -3.45
199.1991 -3.45
199.2325 -3.45
199.261 -3.45
199.2909 -3.45
199.32 -3.45
199.3483 -3.45
199.3817 -3.45
199.4123 -3.45
199.4405 -3.45
199.4722 -3.45
199.5049 -3.45
199.5382 -3.45
199.5677 -3.45
199.601 -3.45
199.6297 -3.45
199.663 -3.45
199.6964 -3.45
199.7255 -3.45
199.7551 -3.45
199.7868 -3.45
199.819 -3.45
199.8524 -3.45
199.8856 -3.45
199.9186 -3.45
199.9477 -3.45
199.981 -3.45
200.0144 -3.45
