時間[s] タイヤの舵角[deg]
0 0
0.02 3.9
0.05333333 -3.9
0.08666666 -3.9
0.12 -3.9
0.1533333 -3.9
0.1866667 -3.9
0.2145059 -3.9
0.2478392 -3.9
0.2794493 -3.9
0.3127826 -3.9
0.3435919 -3.9
0.3769253 -3.9
0.4079728 -3.9
0.4413061 -3.9
0.4742242 -3.9
0.5075264 -3.9
0.5408597 -3.9
0.5713776 -3.9
0.5998121 -3.9
0.6324431 -3.9
0.6657764 -3.9
0.6991098 -3.9
0.7324431 -3.9
0.7629586 -3.9
0.7962919 -3.9
0.8278654 -3.9
0.8605343 -3.9
0.8930295 -3.9
0.9212486 -3.9
0.9524658 -3.9
0.9830289 -3.9
1.016362 -3.9
1.045186 -3.9
1.076588 -3.9
1.109921 -3.9
1.139511 -3.9
1.167993 -3.9
1.197648 -3.9
1.225688 -3.9
1.257705 -3.7
1.286867 -3.7
1.320201 -3.05
1.350657 -2.6
1.381919 -2.6
1.413267 -2.4
1.4466 -2.4
1.4768 -2.4
1.507892 -2.4
1.537948 -2.4
1.568343 -2.4
1.597944 -2.4
1.628031 -2.4
1.657833 -2.4
1.689404 -2.4
1.722737 -2.4
1.752586 -2.4
1.785198 -2.4
1.815574 -2.6
1.847136 -2.6
1.880469 -2.6
1.910444 -2.6
1.941015 -2.6
1.969851 -2.6
1.999337 -2.6
2.027004 -2.6
2.056612 -2.6
2.085362 -2.6
2.116601 -2.6
2.145659 -2.15
2.178661 -2.15
2.207708 -1.05
2.239687 -1.05
2.268439 -0.2
2.301772 1.3
2.335105 2.8
2.367099 2.8
2.396702 4.35
2.426949 4.35
2.460282 5.65
2.493616 6.3
2.524693 6.3
2.558027 6.3
2.59136 5.2
2.624694 3.25
2.657243 3.25
2.689843 0.2
2.718405 0.2
2.750013 -2.6
2.778982 -5
2.811369 -5
2.838897 -7.4
2.872231 -8.5
2.903893 -8.5
2.937226 -8.5
2.967802 -8.5
2.999741 -8.5
3.032458 -8.05
3.064096 -8.05
3.097429 -7.85
3.129625 -7.85
3.161806 -7.85
3.192588 -7.85
3.224249 -7.85
3.254815 -7.85
3.282818 -7.4
3.316151 -6.55
3.347758 -6.55
3.381091 -5.65
3.410824 -4.8
3.442321 -4.8
3.475613 -4.15
3.508481 -4.15
3.538202 -3.7
3.571 -3.7
3.600447 -3.7
3.63009 -3.7
3.661355 -3.7
3.691365 -3.7
3.72216 -3.7
3.755493 -3.7
3.784606 -3.7
3.81794 -3.7
3.851152 -3.7
3.88014 -3.7
3.911503 -3.7
3.941883 -3.7
3.970104 -3.7
4.000068 -3.7
4.033401 -3.7
4.065364 -3.7
4.095684 -3.7
4.126982 -3.7
4.159517 -3.7
4.190445 -3.7
4.223028 -3.7
4.256092 -3.7
4.289425 -3.7
4.322759 -3.7
4.353352 -3.7
4.386685 -3.7
4.420019 -3.7
4.450901 -3.7
4.479484 -3.7
4.511176 -3.7
4.544077 -3.7
4.577411 -3.7
4.607371 -3.7
4.640401 -3.7
4.673735 -3.7
4.707068 -3.7
4.735898 -3.7
4.769231 -3.7
4.799974 -3.7
4.830176 -3.7
4.862531 -3.7
4.891961 -3.7
4.921082 -3.7
4.953919 -3.7
4.983733 -3.7
5.017066 -3.7
5.049394 -3.7
5.082727 -3.7
5.11606 -3.7
5.144976 -3.7
5.175625 -3.7
5.208952 -3.7
5.240959 -3.7
5.274292 -3.7
5.307626 -3.7
5.340959 -3.7
5.374292 -3.7
5.404558 -3.7
5.437891 -3.7
5.470893 -3.7
5.504227 -3.7
5.533539 -3.7
5.563168 -3.7
5.596501 -3.7
5.625035 -3.7
5.655173 -3.7
5.684554 -3.7
5.714054 -3.7
5.747387 -3.7
5.780721 -3.7
5.812693 -3.7
5.84267 -3.7
5.873169 -3.7
5.906503 -3.7
5.936306 -3.7
5.969639 -3.7
6.00028 -3.7
6.03227 -3.7
6.065603 -3.7
6.096024 -3.7
6.125036 -3.7
6.155876 -3.7
6.188512 -3.7
6.221846 -3.7
6.253731 -3.7
6.285128 -3.7
6.314568 -3.7
6.345772 -3.7
6.379105 -3.7
6.41116 -3.7
6.443903 -3.7
6.477237 -3.7
6.508284 -3.7
6.541617 -3.7
6.57495 -3.7
6.608284 -3.7
6.6388 -3.7
6.67006 -3.7
6.703393 -3.7
6.736215 -3.7
6.768542 -3.7
6.801132 -3.7
6.830827 -3.7
6.864161 -3.7
6.892958 -3.7
6.926291 -3.7
6.959624 -3.7
6.992958 -3.7
7.026291 -3.7
7.059624 -3.7
7.088074 -3.7
7.121408 -3.7
7.153243 -3.7
7.186576 -3.7
7.216442 -3.7
7.247258 -3.7
7.275482 -3.7
7.305428 -3.7
7.338761 -3.7
7.368613 -3.7
7.397136 -3.7
7.430469 -3.7
7.460821 -3.7
7.494154 -3.7
7.527487 -3.7
7.559117 -3.7
7.58847 -3.7
7.621593 -3.7
7.654927 -3.7
7.68826 -3.7
7.721593 -3.7
7.75212 -3.7
7.783989 -3.7
7.817323 -3.7
7.84599 -3.7
7.879323 -3.7
7.908944 -3.7
7.939812 -3.7
7.973145 -3.7
8.006275 -3.7
8.039608 -3.7
8.068444 -3.7
8.101778 -3.7
8.135111 -3.7
8.168199 -3.7
8.201532 -3.7
8.234865 -3.7
8.265293 -3.7
8.298626 -3.7
8.329683 -3.7
8.360453 -3.7
8.393786 -3.7
8.42411 -3.7
8.457443 -3.7
8.488809 -3.7
8.522141 -3.7
8.551844 -3.7
8.58352 -3.7
8.616853 -3.7
8.648506 -3.7
8.679648 -3.7
8.709372 -3.7
8.742705 -3.7
8.776038 -3.7
8.805541 -3.7
8.837573 -3.7
8.870907 -3.7
8.903731 -3.7
8.936563 -3.7
8.967269 -3.7
8.998159 -3.7
9.030829 -3.7
9.061598 -3.7
9.094932 -3.7
9.125669 -3.7
9.156468 -3.7
9.187333 -3.7
9.220667 -3.7
9.254 -3.7
9.287077 -3.7
9.32041 -3.7
9.351972 -3.45
9.383017 -3.45
9.41635 -3.05
9.445865 -3.05
9.476615 -2.15
9.504889 -1.3
9.537634 -1.3
9.570968 -0.4
9.604176 0.4
9.637113 0.4
9.670445 0.85
9.702559 1.05
9.735892 1.05
9.766501 1.05
9.797807 1.05
9.831141 1.05
9.864473 1.05
9.897807 1.05
9.930787 1.05
9.961308 1.05
9.993952 1.05
10.02601 1.05
10.05934 1.05
10.08935 1.05
10.12135 1.05
10.15262 1.05
10.18247 1.05
10.21581 1.05
10.24882 1.05
10.27672 1.05
10.30762 1.05
10.34095 1.05
10.37429 1.05
10.40458 1.05
10.43723 1.05
10.46682 1.05
10.49732 1.05
10.53065 1.05
10.55996 1.05
10.58971 1.05
10.62304 1.05
10.65637 1.05
10.68971 1.05
10.72298 1.05
10.75556 1.05
10.78531 1.05
10.81755 1.05
10.85088 1.05
10.88109 1.05
10.91055 1.05
10.9409 1.05
10.97161 1.05
11.00494 1.05
11.03482 1.05
11.06815 1.05
11.09921 1.05
11.13048 1.05
11.16381 1.05
11.19714 1.05
11.22525 1.05
11.25592 1.05
11.28449 1.05
11.31782 1.05
11.34849 1.05
11.37965 1.05
11.4076 1.05
11.43645 1.05
11.46979 1.05
11.49881 1.05
11.5299 1.05
11.5624 1.05
11.59211 1.05
11.62544 1.05
11.65878 1.05
11.68867 1.05
11.71809 1.05
11.75143 1.05
11.78476 1.05
11.81623 1.05
11.84563 1.05
11.87897 1.05
11.91197 1.05
11.9453 1.05
11.97652 1.05
12.00986 1.05
12.03953 1.05
12.06991 1.05
12.10325 1.05
12.13597 1.05
12.16822 1.05
12.19924 1.05
12.23257 1.05
12.26591 1.05
12.29447 1.05
12.3278 1.05
12.35602 1.05
12.38498 1.05
12.41807 1.05
12.45051 1.05
12.47961 1.05
12.51294 1.05
12.54318 1.05
12.57652 1.05
12.60763 1.05
12.63848 1.05
12.67181 1.05
12.70489 1.05
12.73823 1.05
12.76799 1.05
12.79645 1.05
12.82628 1.05
12.85924 1.05
12.89258 1.05
12.92189 1.05
12.95181 1.05
12.98285 1.05
13.0122 1.05
13.04553 1.05
13.07645 1.05
13.10618 1.05
13.13951 1.05
13.16989 1.05
13.20322 1.05
13.23591 1.05
13.26924 1.05
13.29814 1.05
13.33148 1.05
13.36481 1.05
13.39604 1.05
13.4263 1.05
13.45756 1.05
13.48992 1.05
13.52325 1.05
13.55419 1.05
13.58752 1.05
13.61917 1.05
13.65247 1.05
13.6858 1.05
13.71913 1.05
13.7509 1.05
13.78203 1.05
13.81469 1.05
13.84803 1.05
13.87951 1.05
13.91284 1.05
13.94144 1.05
13.97226 1.05
14.00559 1.05
14.03839 1.05
14.07172 1.05
14.10505 1.05
14.13284 1.05
14.16618 1.05
14.19951 1.05
14.23078 1.05
14.25911 1.05
14.29154 1.05
14.32487 1.05
14.3537 1.05
14.38181 1.05
14.41092 1.05
14.44217 1.05
14.4755 1.05
14.50664 1.05
14.53998 1.05
14.57331 1.05
14.60226 1.05
14.63559 1.05
14.66724 1.05
14.70044 1.05
14.73028 1.05
14.76079 1.05
14.79412 1.05
14.82565 1.05
14.85812 1.05
14.88662 1.05
14.91844 1.05
14.95177 1.05
14.98261 1.05
15.01209 1.05
15.04244 1.05
15.07285 1.05
15.10618 1.05
15.13802 1.05
15.17019 1.05
15.19938 1.05
15.23103 1.05
15.26437 1.05
15.29568 1.05
15.32631 1.05
15.35812 1.05
15.38986 1.05
15.42319 1.05
15.45342 1.05
15.48675 1.05
15.51535 0.85
15.54869 0.85
15.58202 0.85
15.61535 0.85
15.64552 0.85
15.67588 0.65
15.70588 0.65
15.73921 0.65
15.7722 0.65
15.80553 0.65
15.83585 0.65
15.86651 0.65
15.89984 0.65
15.93198 0.65
15.96148 0.65
15.99481 0.65
16.02468 0.65
16.05801 0.65
16.0881 0.65
16.12057 0.65
16.1508 0.65
16.18413 0.65
16.21746 0.65
16.24751 0.65
16.27694 0.65
16.31028 0.65
16.34006 0.65
16.3734 0.65
16.4025 0.65
16.43392 0.65
16.46254 0.65
16.49521 0.65
16.52814 0.65
16.55676 0.65
16.58535 0.65
16.61673 0.65
16.65007 0.65
16.6834 0.65
16.71673 0.65
16.74872 0.65
16.77795 0.65
16.81129 0.65
16.84462 0.65
16.87498 0.65
16.90682 0.65
16.93831 0.65
16.96803 0.65
17.00136 0.65
17.02985 0.65
17.06071 0.65
17.08955 0.65
17.12288 0.65
17.15622 0.65
17.18775 0.65
17.21686 0.65
17.24821 0.65
17.28005 0.65
17.31339 0.65
17.34672 0.65
17.37687 0.65
17.40581 0.65
17.43622 0.65
17.46955 0.65
17.49891 0.65
17.52995 0.65
17.56328 0.65
17.59289 0.65
17.62622 0.65
17.65668 0.65
17.69001 0.65
17.72334 0.65
17.75543 0.65
17.78876 0.65
17.82209 0.65
17.85063 0.65
17.88066 0.65
17.91399 0.65
17.94732 0.65
17.97557 0.65
18.0089 0.65
18.03885 0.65
18.06961 0.65
18.10294 0.65
18.13462 0.65
18.16466 0.65
18.19583 0.65
18.22588 0.65
18.25921 0.65
18.29125 0.65
18.32412 0.65
18.35382 0.65
18.38492 0.65
18.41826 0.65
18.44737 0.65
18.4807 0.65
18.51065 0.65
18.53861 0.65
18.57195 0.65
18.6005 0.65
18.63383 0.65
18.66716 0.65
18.69843 0.65
18.73177 0.65
18.7651 0.65
18.79434 0.65
18.82767 0.65
18.86101 0.65
18.89434 0.65
18.9245 0.65
18.95761 0.65
18.98584 0.65
19.01681 0.65
19.05015 0.65
19.08148 0.65
19.11152 0.65
19.14284 0.65
19.17387 0.65
19.2072 0.65
19.24053 0.65
19.27181 0.65
19.30116 0.65
19.33186 0.65
19.36519 0.65
19.39477 0.65
19.4281 0.65
19.45838 0.65
19.48683 0.65
19.52016 0.65
19.54989 0.65
19.58267 0.65
19.61286 0.65
19.64618 0.65
19.67952 0.65
19.71034 0.65
19.74367 0.65
19.77403 0.65
19.80614 0.65
19.83948 0.65
19.869 0.65
19.90233 0.65
19.93031 0.65
19.96087 0.65
19.99421 0.65
20.02554 0.65
20.05317 0.65
20.08182 0.65
20.10998 0.65
20.14126 0.65
20.17459 0.65
20.20792 0.65
20.24113 0.65
20.27239 0.65
20.30109 0.65
20.33442 0.65
20.36703 0.65
20.40036 0.65
20.43157 0.65
20.46215 0.65
20.49548 0.65
20.52757 0.65
20.55642 0.65
20.58975 0.65
20.62055 0.65
20.65388 0.65
20.68259 0.65
20.71446 0.65
20.74332 0.65
20.77362 0.65
20.80695 0.65
20.83923 0.65
20.86831 0.65
20.89735 0.65
20.93068 0.65
20.96401 0.65
20.99474 0.65
21.02596 0.65
21.05665 0.65
21.08659 0.65
21.11993 0.65
21.15105 0.65
21.18411 0.65
21.21744 0.65
21.25078 0.65
21.28411 0.65
21.31261 0.65
21.34398 0.65
21.37407 0.65
21.40741 0.65
21.44074 0.65
21.47375 0.65
21.50223 0.65
21.53171 0.65
21.5619 0.65
21.59523 0.65
21.625 0.65
21.6549 0.65
21.6838 0.65
21.71454 0.65
21.74787 0.65
21.7808 0.65
21.81413 0.65
21.84707 0.65
21.8804 0.65
21.90985 0.65
21.94001 0.65
21.97217 0.65
22.0035 0.65
22.03683 0.65
22.06828 0.65
22.09845 0.65
22.13178 0.65
22.16214 0.65
22.19547 0.65
22.2287 0.65
22.25835 0.65
22.28897 0.65
22.31847 0.65
22.3518 0.65
22.3807 0.65
22.41403 0.65
22.44536 0.65
22.47869 0.65
22.51203 0.65
22.54184 0.65
22.57284 0.65
22.60393 0.65
22.63726 0.65
22.67059 0.65
22.70039 0.65
22.73372 0.65
22.76246 0.65
22.79575 0.65
22.82908 0.65
22.85889 0.65
22.88933 0.65
22.92196 0.65
22.9553 0.65
22.98863 0.65
23.01877 0.65
23.04907 0.65
23.0824 0.65
23.11439 0.65
23.14772 0.65
23.17841 0.65
23.21042 0.65
23.24058 0.65
23.27368 0.65
23.30702 0.65
23.33556 0.65
23.36724 0.65
23.40057 0.65
23.43312 0.65
23.46646 0.65
23.49979 0.65
23.5327 0.65
23.56432 0.65
23.59746 0.65
23.6308 0.65
23.66227 0.65
23.69153 0.65
23.72191 0.65
23.75237 0.65
23.78571 0.65
23.81754 0.65
23.85087 0.65
23.88222 0.65
23.91354 0.65
23.94687 0.65
23.97607 0.65
24.00941 0.65
24.03917 0.65
24.07156 0.65
24.10489 0.65
24.13822 0.65
24.17074 0.65
24.20219 0.65
24.23552 0.65
24.26885 0.65
24.29749 0.65
24.32677 0.65
24.35584 0.65
24.38918 0.65
24.42251 0.65
24.45555 0.65
24.48753 0.65
24.52087 0.65
24.5542 0.65
24.58753 0.65
24.61755 0.65
24.64992 0.65
24.68114 0.65
24.7124 0.65
24.74574 0.65
24.77907 0.65
24.80969 0.65
24.84084 0.65
24.86935 0.65
24.90268 0.65
24.93601 0.65
24.96782 0.65
24.99916 0.65
25.02988 0.65
25.06322 0.65
25.09349 0.65
25.12682 0.65
25.15571 0.65
25.18653 0.65
25.21986 0.65
25.25151 0.65
25.28246 0.65
25.31579 0.65
25.34526 0.65
25.3786 0.65
25.41193 0.65
25.44285 0.65
25.47425 0.65
25.50352 0.65
25.53686 0.65
25.56718 0.65
25.59916 0.65
25.62769 0.65
25.65946 0.65
25.69279 0.65
25.72326 0.65
25.75403 0.65
25.78682 0.65
25.81575 0.65
25.84908 0.85
25.87903 0.85
25.91087 0.85
25.9442 0.85
25.97754 0.85
26.01087 0.85
26.04235 0.85
26.07362 0.85
26.10336 0.85
26.13669 0.85
26.17002 0.85
26.20336 0.85
26.23669 0.85
26.26724 0.85
26.29864 0.85
26.33198 0.85
26.36273 0.85
26.39515 0.85
26.4279 0.85
26.45815 0.85
26.49148 0.85
26.52158 0.85
26.55139 0.85
26.58472 0.85
26.61806 0.85
26.65139 0.85
26.68448 0.85
26.71521 0.85
26.74515 0.85
26.7775 0.85
26.81084 0.85
26.83868 0.85
26.87201 0.85
26.90535 0.85
26.93766 0.85
26.97099 0.85
27.00175 0.85
27.03509 0.85
27.06624 0.85
27.09933 0.85
27.13266 0.85
27.1632 0.85
27.19654 0.85
27.22502 0.85
27.2553 0.85
27.28864 0.85
27.31958 0.85
27.35291 0.85
27.38285 0.85
27.41319 0.85
27.44652 0.85
27.47985 0.85
27.51319 0.85
27.54231 0.85
27.57276 0.85
27.60609 0.85
27.63943 0.85
27.67011 0.85
27.70344 0.85
27.7327 0.85
27.76603 0.85
27.79568 0.85
27.82608 0.85
27.85542 0.85
27.8859 0.85
27.91924 0.85
27.95257 0.85
27.98566 0.85
28.01772 0.85
28.04824 0.85
28.08158 0.85
28.11369 0.85
28.14703 0.85
28.17795 0.85
28.21128 0.85
28.24462 0.85
28.27728 0.85
28.30723 0.85
28.34057 0.85
28.3739 0.85
28.40723 0.85
28.43566 0.85
28.46643 0.85
28.49976 0.85
28.53028 0.85
28.56362 0.85
28.59695 0.85
28.63028 0.85
28.66362 0.85
28.69695 0.85
28.73028 0.85
28.7598 0.85
28.78988 0.85
28.82113 0.85
28.85326 0.85
28.88659 0.85
28.91883 0.85
28.94827 0.85
28.97775 0.85
29.00746 0.85
29.0408 0.85
29.0705 0.85
29.10122 0.85
29.13175 0.85
29.16199 0.85
29.19532 0.85
29.22783 0.85
29.25738 0.85
29.28746 0.85
29.31722 0.85
29.35056 0.85
29.38389 0.85
29.41417 0.85
29.44342 0.85
29.47592 0.85
29.50925 0.85
29.54258 0.85
29.57237 0.85
29.60365 0.85
29.63445 0.85
29.66778 0.85
29.70071 0.85
29.73336 0.85
29.76361 0.85
29.79499 0.85
29.82832 0.85
29.8595 0.85
29.89241 0.85
29.92234 0.85
29.95197 0.85
29.9853 0.85
30.0167 0.85
30.05003 0.85
30.07885 0.85
30.11219 0.85
30.14552 0.85
30.17684 0.85
30.20848 0.85
30.23881 0.85
30.27078 0.85
30.30412 0.85
30.33298 0.85
30.36382 0.85
30.3941 0.85
30.42475 0.85
30.45808 0.85
30.48866 0.85
30.51835 0.85
30.54815 0.85
30.57765 0.85
30.61098 0.85
30.63916 0.85
30.66874 0.85
30.70038 0.85
30.73371 0.85
30.76704 0.85
30.7985 0.85
30.82872 0.85
30.85962 0.85
30.89296 0.85
30.92629 0.85
30.95654 0.85
30.98926 0.85
31.01923 0.85
31.05128 0.85
31.08462 0.85
31.11795 0.85
31.14837 0.85
31.17937 0.85
31.20908 0.85
31.24241 0.85
31.27574 0.85
31.30908 0.85
31.33769 0.85
31.37103 0.85
31.40436 0.85
31.43605 0.85
31.46747 0.85
31.50072 0.85
31.52999 0.85
31.56332 0.85
31.59665 0.85
31.62999 0.85
31.65949 0.85
31.69282 0.85
31.72615 0.85
31.75718 0.85
31.79051 0.85
31.81999 0.85
31.85204 0.85
31.88537 0.85
31.91832 0.85
31.95166 0.85
31.98453 0.85
32.01786 0.85
32.0512 0.85
32.08134 0.85
32.11023 0.85
32.14357 0.85
32.17282 0.85
32.20615 0.85
32.23618 0.85
32.26951 0.85
32.29864 0.85
32.32931 0.85
32.36264 0.85
32.39287 0.85
32.42202 0.85
32.45535 0.85
32.48442 0.85
32.51775 0.85
32.54742 0.85
32.57775 0.85
32.60696 0.85
32.63924 0.85
32.67257 0.85
32.70591 0.85
32.73628 0.85
32.76939 0.85
32.80128 0.85
32.83461 0.85
32.86519 0.85
32.89852 0.85
32.93186 0.85
32.96466 0.85
32.99799 0.85
33.02832 0.85
33.06166 0.85
33.09202 0.85
33.1222 0.85
33.15553 0.85
33.18489 0.85
33.21488 0.85
33.24581 0.85
33.2776 0.85
33.31094 0.85
33.34044 0.85
33.37377 0.85
33.4034 0.85
33.43471 0.85
33.46804 0.85
33.49687 0.85
33.5302 0.85
33.56037 0.85
33.5937 0.85
33.62703 0.85
33.66037 0.85
33.69109 0.85
33.72096 0.85
33.74971 0.85
33.78304 0.85
33.81638 0.85
33.84767 0.85
33.87732 0.85
33.90932 0.85
33.94265 0.85
33.97484 0.85
34.00817 0.85
34.0415 0.85
34.07484 0.85
34.10817 0.85
34.14143 0.85
34.17477 0.85
34.20601 0.85
34.23811 0.85
34.27144 0.85
34.30398 0.85
34.33497 0.85
34.3662 0.85
34.39953 0.85
34.43287 0.85
34.46576 0.85
34.4991 0.85
34.52785 0.85
34.56112 0.85
34.59445 0.85
34.626 0.85
34.65529 0.85
34.68862 0.85
34.72195 0.85
34.75529 0.85
34.78477 0.85
34.81681 0.85
34.85014 0.85
34.88347 0.85
34.91681 0.85
34.94753 0.85
34.97731 0.85
35.00912 0.85
35.04245 0.85
35.07578 0.85
35.1078 0.85
35.14042 0.85
35.17105 0.85
35.20248 0.85
35.23581 0.85
35.26503 0.85
35.29452 0.85
35.32523 0.85
35.355 0.85
35.38833 0.85
35.42167 0.85
35.45181 0.85
35.4811 0.85
35.51392 0.85
35.54726 0.85
35.57771 0.85
35.60786 0.85
35.63765 0.85
35.6663 0.85
35.69963 0.85
35.72834 0.85
35.76123 0.85
35.79123 0.85
35.82456 0.85
35.8579 0.85
35.89123 0.85
35.92159 0.85
35.95149 0.85
35.98215 0.85
36.01548 0.85
36.04882 0.85
36.0812 0.85
36.11176 0.85
36.14509 0.85
36.17842 0.4
36.21006 0.4
36.24175 0.4
36.27509 0.4
36.30429 0.4
36.33763 0.4
36.36729 0
36.39708 -0.65
36.43042 -0.65
36.46375 -1.5
36.49708 -1.95
36.52911 -1.95
36.56136 -2.4
36.59437 -2.4
36.6277 -2.4
36.66104 -2.4
36.69217 -2.4
36.7255 -2.4
36.75483 -2.4
36.78484 -2.4
36.81817 -2.4
36.85059 -2.4
36.88392 -2.15
36.91544 -2.15
36.94714 -2.15
36.98048 -2.15
37.01381 -2.15
37.04461 -2.15
37.07554 -2.15
37.10888 -2.15
37.14221 -2.15
37.17212 -2.15
37.20118 -2.15
37.23452 -2.15
37.26363 -2.15
37.29696 -2.15
37.3303 -2.15
37.36363 -2.15
37.39425 -2.15
37.42759 -2.15
37.46092 -2.15
37.49333 -2.15
37.52331 -2.15
37.55664 -2.15
37.58751 -2.15
37.62084 -2.15
37.65051 -2.15
37.68187 -2.15
37.71316 -2.15
37.74649 -2.15
37.77982 -2.15
37.81301 -2.15
37.84248 -2.15
37.87582 -2.15
37.90915 -2.15
37.94249 -2.15
37.9757 -2.15
38.00739 -2.15
38.03613 -2.15
38.0663 -2.15
38.09963 -2.15
38.12923 -2.15
38.15855 -2.15
38.19073 -2.15
38.22029 -2.15
38.25363 -2.4
38.28696 -2.4
38.31903 -2.8
38.34958 -2.8
38.38053 -3.7
38.41386 -4.35
38.44527 -4.35
38.47697 -4.8
38.5103 -5
38.54363 -5
38.57697 -5
38.6103 -5
38.64042 -5
38.67376 -5
38.70709 -5
38.738 -5
38.76733 -5
38.80005 -5
38.83339 -5
38.86672 -5
38.90005 -5
38.93334 -5
38.96667 -5
38.99684 -5
39.03017 -4.8
39.06255 -4.8
39.09589 -4.8
39.12598 -4.8
39.15882 -5
39.19215 -5
39.22548 -5
39.25482 -5
39.28668 -5
39.31938 -5
39.35271 -5
39.38517 -5
39.41726 -5
39.44934 -5
39.48062 -5
39.51395 -5
39.54728 -5
39.57786 -5
39.61087 -5
39.64302 -5
39.67635 -4.8
39.70885 -4.8
39.73985 -4.8
39.77318 -4.55
39.80537 -3.9
39.83871 -3.45
39.86808 -3.45
39.89743 -2.8
39.92756 -2.8
39.95698 -2.4
39.99031 -2.15
40.02364 -2.15
40.05698 -2.15
40.08965 -2.15
40.12298 -2.15
40.15631 -2.15
40.18645 -2.15
40.21654 -2.15
40.24934 -2.15
40.27979 -2.15
40.31312 -2.15
40.34252 -2.15
40.37585 -2.15
40.40918 -2.15
40.44251 -2.15
40.47584 -2.15
40.50816 -2.15
40.54007 -2.15
40.57134 -2.15
40.60069 -2.15
40.63403 -2.15
40.66558 -2.15
40.69891 -2.15
40.72796 -2.15
40.75812 -2.15
40.79145 -2.15
40.8235 -2.15
40.85306 -2.15
40.88392 -2.15
40.9141 -2.15
40.94743 -2.15
40.97689 -2.15
41.00879 -2.15
41.04212 -2.15
41.07545 -2.15
41.10879 -2.15
41.13861 -2.15
41.16781 -2.15
41.20114 -2.15
41.23009 -2.15
41.26342 -2.15
41.29378 -2.15
41.32711 -2.15
41.35751 -2.15
41.38985 -2.15
41.42318 -2.15
41.45599 -2.15
41.48581 -2.15
41.51692 -2.15
41.54794 -2.15
41.58127 -2.15
41.613 -2.15
41.64391 -2.15
41.67393 -2.15
41.70606 -2.15
41.7394 -2.15
41.77273 -2.15
41.80189 -2.15
41.83234 -2.15
41.862 -2.15
41.89534 -2.15
41.92559 -2.15
41.95527 -2.15
41.9872 -2.15
42.01966 -2.15
42.053 -2.15
42.08633 -2.15
42.11967 -2.15
42.15108 -2.15
42.18441 -2.15
42.21775 -2.15
42.24786 -2.15
42.27771 -2.15
42.30744 -2.15
42.33825 -2.15
42.37158 -2.15
42.40491 -2.15
42.43507 -2.15
42.46802 -2.15
42.49755 -2.15
42.53089 -2.15
42.56422 -2.15
42.59755 -2.15
42.63089 -2.15
42.66422 -2.15
42.69755 -2.15
42.72832 -2.15
42.7564 -2.15
42.78827 -2.15
42.81836 -2.15
42.85169 -2.15
42.88049 -2.15
42.9109 -2.15
42.94232 -2.15
42.97359 -2.15
43.00692 -2.15
43.03855 -2.15
43.06829 -2.15
43.09835 -2.15
43.12991 -2.15
43.16324 -2.15
43.19306 -2.15
43.22485 -2.15
43.25779 -2.15
43.29112 -2.15
43.32446 -2.15
43.35779 -2.15
43.39069 -2.15
43.42402 -2.15
43.45389 -2.15
43.48722 -2.15
43.51949 -2.15
43.55005 -2.15
43.58113 -2.15
43.61106 -2.15
43.6444 -2.15
43.67488 -2.15
43.70656 -2.15
43.73687 -2.15
43.76778 -2.15
43.80112 -2.15
43.83278 -2.15
43.86409 -2.15
43.89742 -2.15
43.92973 -2.15
43.96306 -2.15
43.99514 -2.15
44.02763 -2.4
44.06096 -2.6
44.09337 -2.6
44.12671 -2.6
44.15746 -2.8
44.18907 -2.8
44.21789 -2.8
44.24843 -2.8
44.28176 -2.8
44.3151 -2.8
44.34375 -2.8
44.3764 -2.8
44.40636 -2.8
44.4397 -2.8
44.47173 -2.8
44.50346 -2.8
44.53679 -2.8
44.57013 -2.8
44.60346 -2.8
44.63679 -2.8
44.66622 -2.8
44.69955 -2.8
44.73002 -2.8
44.76335 -2.8
44.79244 -2.8
44.82312 -2.8
44.85297 -2.8
44.8834 -2.8
44.91674 -2.8
44.95007 -2.8
44.97979 -2.8
45.01123 -2.8
45.04127 -2.8
45.0746 -2.8
45.10512 -2.8
45.13705 -2.8
45.1671 -2.8
45.19897 -2.8
45.23231 -2.8
45.26498 -2.8
45.29541 -2.8
45.32574 -2.8
45.35571 -2.8
45.38904 -2.8
45.41803 -2.8
45.44783 -2.8
45.4791 -2.8
45.51076 -2.8
45.54409 -2.8
45.57671 -2.8
45.61004 -2.8
45.63983 -2.8
45.67316 -2.8
45.7065 -2.8
45.73566 -2.8
45.76554 -2.8
45.7947 -2.8
45.82468 -2.8
45.85802 -2.8
45.89135 -2.8
45.92026 -2.8
45.95256 -2.8
45.98589 -2.8
46.01922 -2.8
46.05127 -2.8
46.08461 -2.8
46.1153 -2.8
46.14863 -2.8
46.18196 -2.8
46.21448 -2.8
46.24533 -2.8
46.27604 -2.8
46.30551 -2.8
46.33884 -2.8
46.36929 -2.8
46.40034 -2.8
46.43368 -2.8
46.46701 -2.8
46.50035 -3.05
46.53176 -3.25
46.56146 -3.25
46.5948 -3.25
46.62369 -3.25
46.65702 -3.25
46.68591 -3.25
46.71925 -3.25
46.75073 -3.25
46.78139 -3.25
46.81473 -3.25
46.84579 -3.25
46.87913 -3.25
46.90923 -3.25
46.93869 -3.25
46.97202 -3.25
47.00536 -3.25
47.03869 -3.25
47.0714 -3.25
47.10313 -3.25
47.13646 -3.25
47.16661 -3.25
47.19994 -3.25
47.22991 -3.25
47.26075 -3.25
47.29408 -3.25
47.32272 -3.25
47.35361 -3.25
47.38695 -3.25
47.41754 -3.25
47.45087 -3.25
47.48063 -3.25
47.51283 -3.25
47.54617 -3.25
47.5795 -3.25
47.61283 -3.25
47.64201 -3.25
47.67386 -3.25
47.70468 -3.25
47.73587 -3.25
47.7692 -3.25
47.80253 -3.25
47.83366 -3.25
47.86434 -3.25
47.89335 -3.25
47.92669 -3.25
47.95767 -3.25
47.98989 -3.25
48.02037 -3.25
48.05154 -3.25
48.08488 -3.25
48.11657 -3.25
48.14662 -3.25
48.17861 -3.25
48.21161 -3.25
48.24494 -3.25
48.27827 -3.25
48.31127 -3.25
48.3432 -3.25
48.37613 -3.25
48.40947 -3.25
48.43929 -3.25
48.46851 -3.25
48.50185 -3.25
48.53518 -3.25
48.56851 -3.25
48.60014 -3.25
48.63176 -3.25
48.66509 -3.25
48.69554 -3.25
48.72887 -3.25
48.76221 -3.25
48.79081 -3.25
48.82065 -3.25
48.84964 -3.25
48.88297 -3.25
48.91188 -3.25
48.94388 -3.25
48.97721 -3.25
49.01055 -3.25
49.04388 -3.25
49.07362 -3.25
49.10321 -3.25
49.13654 -3.25
49.16581 -3.25
49.19915 -3.25
49.22889 -3.25
49.26093 -3.25
49.29355 -3.25
49.3238 -3.25
49.35714 -3.25
49.38737 -3.25
49.41599 -3.25
49.44932 -3.25
49.48172 -3.25
49.51505 -3.25
49.54839 -3.25
49.58161 -3.25
49.61268 -3.25
49.64601 -3.25
49.67935 -3.25
49.70911 -3.25
49.74237 -3.25
49.77372 -3.25
49.80419 -3.25
49.83752 -3.25
49.86716 -3.25
49.9005 -3.25
49.9323 -3.25
49.96193 -3.25
49.99526 -3.25
50.02778 -3.25
50.06112 -3.25
50.09071 -3.25
50.1203 -3.25
50.15364 -3.25
50.18266 -3.25
50.216 -3.25
50.24933 -3.25
50.28266 -3.25
50.316 -3.25
50.34558 -3.25
50.37424 -3.25
50.40614 -3.25
50.43947 -3.25
50.47281 -3.25
50.50614 -3.25
50.53861 -3.25
50.56968 -3.25
50.60301 -3.25
50.63634 -3.25
50.66594 -3.25
50.69614 -3.25
50.72947 -3.25
50.75971 -3.25
50.79305 -3.25
50.82401 -3.25
50.85613 -3.25
50.88713 -3.25
50.92047 -3.25
50.9538 -3.25
50.98503 -3.25
51.01374 -3.25
51.04708 -3.25
51.07787 -3.25
51.1112 -3.25
51.14278 -3.25
51.17452 -3.25
51.2051 -3.25
51.23844 -3.25
51.27177 -3.25
51.3051 -3.25
51.33424 -3.25
51.36366 -3.25
51.39297 -3.25
51.42631 -3.45
51.45555 -3.7
51.48602 -3.7
51.51775 -3.9
51.55108 -3.9
51.58441 -4.15
51.61774 -4.15
51.64592 -4.15
51.679 -4.15
51.70888 -4.15
51.74221 -4.15
51.77554 -4.15
51.80613 -4.15
51.835 -4.15
51.86833 -4.15
51.90166 -4.15
51.93472 -4.15
51.96774 -4.15
51.99739 -4.15
52.02726 -4.15
52.0606 -4.15
52.09047 -3.9
52.12381 -3.9
52.15405 -3.9
52.18738 -3.9
52.22072 -3.9
52.25098 -3.9
52.28053 -3.9
52.31024 -3.9
52.34355 -3.9
52.37688 -3.9
52.40503 -3.9
52.43713 -3.9
52.46601 -3.9
52.49685 -3.9
52.53018 -3.9
52.56057 -3.9
52.59001 -3.9
52.62206 -3.9
52.65386 -3.9
52.68719 -3.9
52.7167 -3.9
52.75003 -3.9
52.77995 -3.9
52.81087 -3.9
52.8442 -3.9
52.87599 -3.9
52.90616 -3.9
52.9395 -3.9
52.97283 -3.9
53.00616 -3.9
53.03395 -3.9
53.06617 -3.9
53.09806 -3.9
53.12771 -3.9
53.16105 -3.9
53.19189 -3.9
53.22269 -3.9
53.25522 -3.9
53.28856 -3.9
53.32189 -3.9
53.35386 -3.9
53.38626 -3.9
53.41694 -3.9
53.4469 -3.9
53.48024 -3.9
53.51313 -3.9
53.54192 -3.9
53.57173 -3.9
53.60118 -3.9
53.63451 -3.9
53.66432 -3.9
53.69765 -3.9
53.73098 -3.9
53.76147 -3.9
53.79481 -3.9
53.82771 -3.9
53.86032 -3.9
53.89365 -3.9
53.92228 -3.9
53.95561 -3.9
53.98486 -3.9
54.01412 -3.9
54.04276 -3.9
54.07585 -3.9
54.10918 -3.9
54.14069 -3.9
54.17086 -3.9
54.2019 -3.9
54.23524 -3.9
54.26857 -3.9
54.30187 -3.9
54.33359 -3.9
54.36246 -3.9
54.39267 -3.9
54.42601 -3.9
54.45573 -3.9
54.48907 -3.9
54.5219 -3.9
54.55327 -3.9
54.58661 -3.7
54.6155 -3.7
54.64883 -3.45
54.67867 -3.45
54.70894 -3.45
54.74227 -3.45
54.77404 -3.45
54.80292 -3.45
54.83329 -3.45
54.86448 -3.45
54.89781 -3.45
54.92633 -3.45
54.95705 -3.45
54.98554 -3.25
55.01509 -3.05
55.04843 -3.05
55.07871 -2.8
55.11205 -2.8
55.14181 -2.8
55.1709 -2.6
55.20424 -2.6
55.23616 -2.6
55.26803 -2.4
55.29772 -2.15
55.33015 -2.15
55.36349 -1.7
55.39682 -1.3
55.42558 -1.3
55.45534 -0.85
55.48622 -0.85
55.51955 -0.4
55.54982 0
55.57999 0
55.61027 0.4
55.6436 0.85
55.67694 0.85
55.70944 1.05
55.74277 1.3
55.77484 1.3
55.80771 1.5
55.84105 1.5
55.87141 1.5
55.90266 1.5
55.93263 1.5
55.96489 1.5
55.99822 1.7
56.02997 2.15
56.0633 2.15
56.09406 2.15
56.1245 2.15
56.15783 2.15
56.1871 2.15
56.21645 2.15
56.24979 2.15
56.28312 2.15
56.31646 2.15
56.34633 2.15
56.37678 2.15
56.41012 2.15
56.44052 2.15
56.47385 2.15
56.50272 2.15
56.533 2.15
56.56512 2.15
56.59604 2.15
56.62937 2.15
56.6627 2.15
56.69244 2.15
56.72287 2.15
56.75425 2.15
56.78759 2.15
56.82092 2.15
56.85426 2.15
56.88377 2.15
56.91334 2.15
56.94667 2.15
56.97878 2.15
57.01212 2.15
57.04545 2.15
57.07803 2.15
57.11137 2.15
57.14312 2.15
57.17645 2.15
57.20979 2.15
57.24312 2.15
57.27645 2.15
57.30911 2.15
57.34105 2.15
57.37438 2.4
57.40447 2.4
57.4378 2.4
57.46845 2.6
57.50179 2.8
57.53112 2.8
57.56335 3.25
57.59669 4.15
57.62672 4.15
57.65767 4.8
57.691 5.65
57.72433 5.65
57.75766 6.55
57.7877 7.4
57.81894 7.4
57.85037 8.05
57.88145 8.05
57.91478 8.05
57.94511 8.05
57.97425 8.05
58.00401 8.3
58.03728 8.5
58.07061 9.35
58.09927 9.35
58.1326 10
58.16336 10
58.19669 11.1
58.23002 11.75
58.26046 12.2
58.29064 12.2
58.32397 12.45
58.35413 12.45
58.38746 12.45
58.4208 12.45
58.45413 12.45
58.48746 12.85
58.51743 12.85
58.55077 13.5
58.58137 13.5
58.61225 14.4
58.64403 15.25
58.6735 15.25
58.70684 16.15
58.73562 17
58.76525 17
58.79649 17.25
58.82982 18.55
58.86316 18.55
58.89392 19.65
58.9229 21.15
58.95623 21.15
58.9884 22.7
59.02174 24.2
59.05507 24.2
59.08573 25.3
59.11557 26.65
59.1489 26.65
59.18223 27.7
59.21309 28.35
59.24387 28.35
59.27409 29.25
59.30452 29.25
59.33785 29.9
59.36786 30.8
59.39908 30.8
59.43241 31.65
59.46284 32.75
59.49617 32.75
59.527 33.6
59.55801 34.5
59.59124 34.5
59.62121 35.35
59.65455 36.25
59.68788 36.25
59.71859 37.1
59.74812 37.75
59.78 37.75
59.81333 38.4
59.84496 38.85
59.87676 38.85
59.90775 38.85
59.93895 38.85
59.97228 38.85
60.00562 38.85
60.03659 39.3
60.0656 39.3
60.09593 39.75
60.12926 39.95
60.15984 39.95
60.19127 40.15
60.22308 41.05
60.25369 41.05
60.28703 42.15
60.32036 43
60.35121 43
60.38454 44.3
60.41501 45.65
60.44835 45.65
60.47997 47.6
60.51131 49.55
60.54418 49.55
60.57524 51.95
60.60857 53.5
60.63716 53.5
60.66748 55.25
60.69799 55.25
60.72779 56.55
60.76112 57.85
60.79336 59.15
60.82227 59.15
60.85174 60.25
60.88214 60.25
60.91548 60.9
60.9465 61.6
60.97689 61.6
61.01022 61.6
61.04333 61.8
61.07666 61.8
61.10942 61.8
61.13947 61.8
61.17049 61.8
61.20358 61.8
61.23692 61.8
61.2677 61.8
61.29716 61.8
61.32847 62
61.3618 62
61.39513 62.45
61.42496 63.3
61.4583 63.3
61.48849 64.2
61.51885 65.5
61.55218 65.5
61.58241 66.6
61.61574 68.35
61.64629 68.35
61.67962 69.9
61.71295 70.95
61.74358 70.95
61.7734 72.7
61.80673 73.8
61.83708 73.8
61.87041 75.1
61.89936 76.65
61.9313 76.65
61.96124 77.75
61.99217 77.75
62.02551 79.25
62.05884 80.6
62.09217 81.9
62.12469 81.9
62.15801 82.75
62.19134 83.65
62.22467 83.65
62.25526 84.5
62.28602 84.95
62.31923 84.95
62.35257 85.15
62.3842 85.15
62.41435 85.15
62.44597 85.15
62.47459 85.15
62.50792 85.15
62.53668 85.15
62.56949 85.15
62.60035 85.15
62.63181 85.15
62.66515 85.15
62.69848 85.6
62.72784 86.05
62.75879 86.05
62.78939 86.7
62.82273 87.55
62.85408 87.55
62.88662 88.65
62.91822 89.55
62.94852 89.55
62.98185 90.65
63.01519 91.5
63.04852 91.5
63.07854 92.15
63.10932 93.05
63.14265 93.05
63.17599 93.45
63.20655 93.7
63.23988 93.7
63.27076 93.7
63.3041 93.7
63.33743 93.7
63.36952 93.7
63.40175 93.7
63.43113 93.7
63.46447 93.7
63.4978 93.7
63.53113 93.7
63.56446 93.7
63.5978 93.7
63.62729 93.9
63.66062 93.9
63.69008 93.9
63.72324 94.15
63.75657 94.15
63.78884 94.15
63.82203 94.35
63.85159 94.35
63.88195 94.35
63.91528 94.35
63.94461 94.35
63.97795 94.35
64.00701 94.35
64.04025 94.35
64.07359 94.35
64.10692 94.35
64.13956 94.35
64.17289 94.35
64.20622 94.35
64.23956 94.35
64.2682 94.35
64.29908 94.35
64.32939 94.35
64.36272 94.35
64.39606 94.35
64.42643 94.35
64.45976 94.35
64.49063 94.35
64.52044 94.35
64.55378 94.35
64.58711 94.35
64.62045 94.35
64.64911 94.35
64.67902 94.35
64.71235 94.35
64.74488 94.35
64.77822 94.35
64.80902 94.35
64.83846 94.35
64.87179 94.35
64.90512 94.35
64.93557 94.35
64.96547 94.35
64.99822 94.35
65.03156 94.35
65.06255 94.35
65.09351 94.35
65.12684 94.35
65.16017 94.35
65.1935 94.35
65.22684 94.35
65.25787 94.35
65.28829 94.35
65.31847 94.55
65.3518 94.55
65.38194 94.55
65.41308 94.55
65.44401 94.55
65.47734 94.55
65.51067 94.55
65.54006 94.55
65.57126 94.55
65.60087 94.55
65.63199 94.55
65.66533 94.55
65.69664 94.55
65.72727 94.55
65.75826 94.55
65.79159 94.8
65.82492 94.8
65.85415 94.8
65.88581 94.8
65.91434 94.8
65.94768 94.8
65.98101 94.55
66.00995 94.55
66.03748 94.15
66.06793 93.7
66.09811 93.7
66.13144 93.05
66.16114 92.6
66.19315 92.6
66.22201 92.15
66.25246 92.15
66.28579 91.7
66.3159 91.05
66.3455 91.05
66.3781 90.4
66.408 89.75
66.44134 89.75
66.46968 89.1
66.50037 88.65
66.52983 88.65
66.55966 88.65
66.59299 88.65
66.62509 88.65
66.65661 88.65
66.68948 88.65
66.71964 88.65
66.75297 88.65
66.78132 88.65
66.81096 88.65
66.84116 88.65
66.87117 88.65
66.9045 88.65
66.93784 88.9
66.96714 88.9
66.99766 89.1
67.02718 89.1
67.06052 89.55
67.09071 89.75
67.12199 89.75
67.15337 89.75
67.1858 89.55
67.21913 89.55
67.24927 89.1
67.28024 88
67.3109 88
67.34423 86.5
67.37756 84.75
67.4109 84.75
67.44286 83
67.4762 81
67.50953 81
67.54286 79.05
67.57352 76.85
67.60176 76.85
67.63362 75.35
67.66487 73.15
67.6982 73.15
67.73019 71.4
67.76305 68.8
67.79234 68.8
67.82469 66.8
67.85802 64
67.89075 64
67.92364 61.8
67.95697 58.75
67.98552 58.75
68.01885 56.55
68.0493 54.15
68.08263 54.15
68.11279 51.75
68.14529 49.8
68.17863 49.8
68.21196 48.25
68.24175 46.95
68.27509 46.95
68.30727 45.85
68.3406 44.55
68.37393 43.45
68.40385 43.45
68.43254 42.15
68.46587 42.15
68.49921 40.4
68.5284 38.85
68.55875 38.85
68.59003 36.9
68.62336 34.7
68.65669 34.7
68.68484 32.75
68.71766 30.35
68.74782 30.35
68.77899 27.95
68.81232 25.55
68.84502 25.55
68.87835 22.9
68.91153 20.75
68.94164 20.75
68.97498 17.65
69.00509 15.05
69.03842 15.05
69.07091 10.9
69.10424 6.55
69.13757 6.55
69.16724 2.8
69.20057 -1.7
69.23157 -1.7
69.26456 -5.85
69.29789 -9.15
69.33059 -9.15
69.36392 -10.7
69.39202 -11.55
69.42186 -11.55
69.45519 -12
69.4862 -12
69.51482 -12
69.54484 -12
69.57301 -12
69.60635 -12
69.63772 -12
69.66798 -12
69.69759 -12
69.72765 -12
69.76098 -12
69.79083 -12
69.82062 -12
69.85352 -11.55
69.88364 -10.9
69.91697 -10.9
69.94711 -9.8
69.97938 -8.05
70.01105 -8.05
70.0424 -5.65
70.07573 -3.7
70.10906 -3.7
70.1404 -1.5
70.1732 0.4
70.2038 0.4
70.23714 1.5
70.26798 2.15
70.29735 2.15
70.32706 2.4
70.35825 2.4
70.39158 2.4
70.42131 1.95
70.45438 1.3
70.48375 1.3
70.51386 0
70.5472 -1.5
70.57841 -1.5
70.61174 -2.8
70.64507 -2.8
70.6763 -3.7
70.70963 -4.35
70.73949 -4.35
70.76897 -4.8
70.8005 -5
70.82932 -5
70.86266 -5
70.89436 -5
70.92403 -5
70.95476 -4.55
70.98809 -3.25
71.02143 -3.25
71.05371 -1.95
71.08609 -0.65
71.11599 -0.65
71.14483 0.65
71.17816 1.3
71.20912 1.3
71.24138 1.7
71.27273 1.95
71.30606 1.95
71.33939 1.95
71.37247 2.15
71.4025 2.15
71.43583 2.4
71.46848 2.8
71.50181 2.8
71.53312 3.45
71.56535 3.9
71.59404 3.9
71.62588 4.15
71.65921 4.35
71.68925 4.35
71.72256 4.35
71.75253 4.35
71.78494 4.35
71.81828 4.35
71.8474 4.35
71.878 4.35
71.91133 4.35
71.94462 4.35
71.97796 4.35
72.01129 4.35
72.04169 4.35
72.07388 4.35
72.10229 4.35
72.13563 4.35
72.16762 4.35
72.19891 4.35
72.22661 4.35
72.25994 4.35
72.29327 4.35
72.32613 4.35
72.35707 4.35
72.38709 4.35
72.41663 4.35
72.44997 4.35
72.48211 4.35
72.51234 4.35
72.54362 4.35
72.57695 4.35
72.61028 4.35
72.64301 4.35
72.67348 4.35
72.70463 4.35
72.7359 4.15
72.76923 3.9
72.79956 3.9
72.83289 3.7
72.86482 3.7
72.89574 3.7
72.92908 3.7
72.96171 3.7
72.99002 3.7
73.02335 3.7
73.05669 3.7
73.09002 3.7
73.12125 3.7
73.15285 3.7
73.18333 3.7
73.21369 3.7
73.24702 3.7
73.2767 3.7
73.30807 3.7
73.33987 3.7
73.36854 3.45
73.40187 3.05
73.43085 3.05
73.45992 2.8
73.48923 2.6
73.52202 2.6
73.55535 2.6
73.58556 2.4
73.61663 2.4
73.64996 2.4
73.67944 2.4
73.71278 2.4
73.74282 2.4
73.77456 2.4
73.80319 2.4
73.83577 2.15
73.8691 1.7
73.89814 1.7
73.92889 1.3
73.96223 1.3
73.99287 1.05
74.0262 1.05
74.05751 1.05
74.09084 1.05
74.1225 1.05
74.15451 1.05
74.18784 1.05
74.21786 1.05
74.25035 1.05
74.28368 1.05
74.31217 1.05
74.3455 1.05
74.37566 1.05
74.40899 1.05
74.44185 1.05
74.47276 1.05
74.5061 1.05
74.53943 1.05
74.56857 1.05
74.59944 1.05
74.62923 1.05
74.66257 0.85
74.69217 0.65
74.7255 0.4
74.75449 0.4
74.78587 -0.2
74.81921 -0.2
74.84949 -0.2
74.88283 -0.2
74.91501 -0.2
74.94807 -0.2
74.9814 -0.2
75.01015 -0.2
75.04128 -0.2
75.07461 -0.2
75.10703 -0.2
75.14037 -0.2
75.1737 -0.2
75.2023 -0.2
75.2354 -0.2
75.26442 -0.2
75.29775 -0.2
75.32621 -0.2
75.35725 -0.2
75.38722 -0.2
75.41671 -0.2
75.45004 -0.2
75.48309 -0.2
75.51306 -0.2
75.5436 -0.2
75.57339 -0.2
75.60673 -0.2
75.63909 -0.2
75.67221 -0.2
75.70361 -0.2
75.73694 -0.2
75.77027 -0.2
75.8036 -0.2
75.83307 -0.2
75.86324 -0.2
75.89446 -0.2
75.9278 -0.2
75.96113 -0.2
75.99063 -0.2
76.02287 -0.2
76.05528 -0.2
76.08862 -0.2
76.11849 -0.2
76.14817 -0.2
76.17921 -0.2
76.21254 -0.2
76.24587 -0.2
76.27765 -0.2
76.30974 -0.2
76.33836 -0.2
76.36845 -0.2
76.40178 -0.2
76.43227 -0.2
76.46128 -0.2
76.49461 -0.2
76.52346 -0.2
76.55679 -0.2
76.58692 -0.2
76.61721 -0.4
76.65046 -0.4
76.68225 -0.4
76.71558 -0.4
76.74696 -0.4
76.778 -0.4
76.80773 -0.4
76.83963 -0.4
76.87296 -0.2
76.90413 0
76.93613 0
76.96432 0
76.99392 0
77.02725 0
77.05667 0
77.08703 0
77.11732 0
77.15065 0
77.18398 0
77.21604 0
77.24828 0
77.2774 0
77.30955 0
77.34288 0
77.37621 0
77.40955 0
77.44176 0
77.47091 0
77.50424 0
77.53381 0
77.56348 0
77.59441 0
77.62461 0
77.65794 0
77.6908 0
77.72414 0
77.75747 0
77.78508 0
77.81841 0
77.84772 0
77.87757 0
77.91037 0
77.9437 0
77.97704 0
78.0062 0
78.03953 0
78.06865 0
78.0985 0
78.13183 0
78.16516 0
78.19701 0
78.23035 0
78.26116 0
78.2945 0
78.32384 0
78.35273 0
78.38224 0
78.4125 0
78.44583 0
78.47916 0
78.5125 0
78.54248 0
78.575 0
78.60833 0
78.64166 0
78.67341 0
78.70674 0
78.73524 0
78.76858 0
78.79831 0
78.83073 0
78.86406 0
78.89505 0
78.92838 0
78.95732 -0.2
78.98807 -0.2
79.01825 -0.2
79.04718 -0.2
79.08051 -0.2
79.10932 -0.4
79.13854 -0.4
79.17149 -0.4
79.20144 -0.4
79.23477 -0.4
79.26635 -0.4
79.29657 -0.4
79.3262 -0.4
79.35556 -0.4
79.38889 -0.4
79.41833 -0.2
79.44913 -0.2
79.4799 -0.2
79.51074 -0.2
79.54408 -0.2
79.57641 -0.2
79.60524 -0.2
79.63462 -0.2
79.66306 -0.2
79.6964 -0.2
79.72453 -0.2
79.75786 -0.2
79.78756 -0.2
79.81796 -0.2
79.8513 -0.2
79.88463 -0.2
79.91318 -0.2
79.94328 -0.2
79.97332 -0.2
80.00665 -0.2
80.03752 -0.2
80.06679 -0.2
80.09599 -0.2
80.12544 -0.2
80.15878 -0.2
80.19211 -0.2
80.22189 -0.2
80.25209 -0.2
80.28089 -0.2
80.31422 -0.2
80.34622 -0.2
80.37955 -0.2
80.41039 -0.2
80.44273 -0.2
80.47606 -0.2
80.50939 -0.2
80.54272 -0.2
80.57478 -0.2
80.60777 -0.2
80.64111 -0.2
80.67348 -0.2
80.70435 -0.2
80.73347 -0.2
80.76332 -0.2
80.79665 -0.2
80.82999 -0.2
80.85937 -0.4
80.88998 -0.4
80.91964 -0.4
80.95297 -0.65
80.98631 -0.65
81.01964 -0.65
81.05297 -0.85
81.0863 -0.85
81.11658 -0.85
81.14615 -0.85
81.17594 -0.85
81.20716 -0.85
81.2405 -1.05
81.27034 -1.05
81.29972 -1.05
81.32867 -1.05
81.35764 -1.05
81.39098 -1.05
81.42069 -1.05
81.45004 -1.05
81.48338 -1.05
81.51671 -1.05
81.55004 -1.05
81.58196 -1.05
81.61278 -1.05
81.64286 -1.05
81.67135 -1.05
81.70468 -1.05
81.73801 -1.05
81.77133 -1.05
81.80467 -1.05
81.83801 -1.05
81.87134 -1.05
81.90425 -1.05
81.93324 -1.05
81.96619 -1.05
81.99481 -1.05
82.02814 -1.05
82.05952 -1.05
82.09126 -1.05
82.12119 -1.05
82.15452 -1.05
82.18785 -1.05
82.21716 -1.05
82.24744 -1.05
82.27773 -1.05
82.30824 -1.05
82.34158 -1.05
82.37212 -1.05
82.40545 -1.05
82.4371 -1.05
82.46895 -1.05
82.50228 -0.85
82.53561 -0.85
82.56532 -0.85
82.59866 -0.85
82.62791 -0.85
82.66125 -0.85
82.69056 -0.85
82.72284 -0.85
82.75166 -0.85
82.78177 -0.85
82.8151 -0.85
82.84784 -0.85
82.87749 -0.85
82.90847 -0.85
82.9365 -0.85
82.96983 -0.85
82.99877 -0.85
83.02933 -0.85
83.06007 -0.85
83.09167 -0.85
83.12501 -0.85
83.15834 -0.85
83.18707 -0.85
83.21629 -0.85
83.24866 -0.85
83.282 -0.85
83.31533 -0.85
83.34521 -0.85
83.37427 -0.85
83.40427 -0.85
83.43761 -0.85
83.47094 -0.85
83.50249 -0.85
83.53583 -0.85
83.5648 -0.85
83.59814 -0.85
83.62715 -0.85
83.65953 -0.85
83.68996 -0.85
83.71967 -0.85
83.753 -0.85
83.78406 -0.85
83.81522 -0.85
83.84711 -0.85
83.87952 -0.85
83.91285 -0.85
83.94122 -0.85
83.97051 -0.65
83.99931 -0.65
84.03264 -0.65
84.06597 -0.65
84.09661 -0.65
84.12961 -0.65
84.16187 -0.65
84.19328 -0.65
84.22662 -0.65
84.25996 -0.65
84.28913 -0.65
84.31934 -0.65
84.35268 -0.65
84.38601 -0.65
84.41737 -0.65
84.44661 -0.65
84.47668 -0.65
84.50542 -0.65
84.53875 -0.65
84.57208 -0.65
84.60542 -0.65
84.63657 -0.65
84.66835 -0.65
84.70168 -0.65
84.73281 -0.65
84.7626 -0.65
84.79379 -0.65
84.82689 -0.65
84.86022 -0.65
84.88843 -0.65
84.92067 -0.65
84.94918 -0.65
84.98032 -0.65
85.01366 -0.65
85.04453 -0.65
85.07403 -0.65
85.10725 -0.65
85.13778 -0.65
85.17111 -0.65
85.20219 -0.65
85.23259 -0.65
85.26237 -0.65
85.29407 -0.65
85.3274 -0.65
85.3596 -0.65
85.38896 -0.65
85.41927 -0.65
85.45058 -0.65
85.48391 -0.65
85.51213 -0.65
85.5428 -0.65
85.57073 -0.65
85.5999 -0.65
85.63323 -0.65
85.66441 -0.65
85.69286 -0.65
85.72574 -0.65
85.75416 -0.65
85.78749 -0.65
85.82011 -0.65
85.8526 -0.65
85.88335 -0.65
85.91669 -0.65
85.95002 -0.65
85.97972 -0.65
86.00799 -0.65
86.03755 -0.65
86.06587 -0.65
86.09921 -0.65
86.12878 -0.65
86.16177 -0.65
86.19224 -0.65
86.2244 -0.65
86.25774 -0.65
86.28849 -0.65
86.31963 -0.65
86.35296 -0.65
86.38629 -0.65
86.41962 -0.65
86.44846 -0.65
86.47893 -0.65
86.50908 -0.65
86.54241 -0.65
86.57574 -0.65
86.60886 -0.65
86.64002 -0.65
86.66911 -0.65
86.69756 -0.65
86.7309 -0.65
86.75975 -0.65
86.79238 -0.65
86.8252 -0.65
86.85685 -0.65
86.89018 -0.65
86.92249 -0.65
86.95303 -0.65
86.98245 -0.65
87.01112 -0.65
87.04445 -0.65
87.0777 -0.65
87.11006 -0.65
87.13887 -0.65
87.17075 -0.65
87.20409 -0.65
87.23742 -0.65
87.26894 -0.65
87.30041 -0.65
87.33231 -0.65
87.36564 -0.65
87.3952 -0.65
87.42525 -0.65
87.45515 -0.65
87.48709 -0.65
87.52042 -0.65
87.55376 -0.65
87.58261 -0.65
87.61594 -0.65
87.64684 -0.65
87.68018 -0.65
87.71351 -0.65
87.74477 -0.65
87.77574 -0.65
87.80555 -0.65
87.83888 -0.65
87.86843 -0.65
87.89745 -0.65
87.92705 -0.65
87.9565 -0.65
87.98984 -0.65
88.02126 -0.65
88.05199 -0.65
88.08044 -0.65
88.11055 -0.65
88.14388 -0.65
88.17722 -0.65
88.20908 -0.65
88.23891 -0.65
88.27224 -0.65
88.30557 -0.65
88.33339 -0.65
88.36323 -0.65
88.3934 -0.65
88.42574 -0.65
88.45907 -0.65
88.49042 -0.65
88.52229 -0.65
88.55562 -0.65
88.58624 -0.65
88.61957 -0.65
88.64863 -0.65
88.67863 -0.65
88.71194 -0.65
88.74352 -0.65
88.77686 -0.65
88.80865 -0.65
88.84198 -0.65
88.87435 -0.65
88.90743 -0.65
88.94077 -0.65
88.97037 -0.65
88.99969 -0.65
89.02798 -0.65
89.06127 -0.65
89.0946 -0.65
89.12441 -0.65
89.15277 -0.65
89.18344 -0.65
89.21531 -0.65
89.24864 -0.65
89.28197 -0.65
89.31314 -0.65
89.34195 -0.65
89.3714 -0.65
89.40473 -0.65
89.43359 -0.65
89.46648 -0.65
89.49981 -0.65
89.53 -0.65
89.56333 -0.65
89.59244 -0.65
89.62577 -0.65
89.65497 -0.65
89.6883 -0.65
89.72163 -0.65
89.75156 -0.65
89.78431 -0.65
89.81506 -0.65
89.84369 -0.65
89.87702 -0.65
89.90697 -0.65
89.94031 -0.65
89.97018 -0.65
90.00351 -0.65
90.03684 -0.65
90.06606 -0.65
90.09645 -0.65
90.12592 -0.65
90.15762 -0.65
90.19096 -0.65
90.22002 -0.65
90.25164 -0.65
90.28446 -0.65
90.31483 -0.65
90.34816 -0.65
90.37811 -0.65
90.40784 -0.65
90.44117 -0.65
90.47121 -0.65
90.50455 -0.65
90.53439 -0.65
90.56477 -0.65
90.59336 -0.65
90.62331 -0.65
90.65665 -0.65
90.68832 -0.65
90.72163 -0.65
90.75116 -0.65
90.77999 -0.65
90.81332 -0.65
90.84122 -0.65
90.87019 -0.65
90.89935 -0.65
90.92912 -0.65
90.96245 -0.65
90.99149 -0.65
91.02404 -0.65
91.05685 -0.65
91.08581 -0.65
91.11914 -0.65
91.15175 -0.65
91.18224 -0.65
91.21557 -0.65
91.24724 -0.65
91.28057 -0.65
91.31031 -0.65
91.34051 -0.65
91.37015 -0.65
91.40112 -0.65
91.43446 -0.65
91.46436 -0.65
91.4977 -0.65
91.52728 -0.65
91.56062 -0.65
91.59396 -0.65
91.62547 -0.65
91.65382 -0.65
91.68501 -0.65
91.71513 -0.65
91.74847 -0.65
91.77896 -0.65
91.81229 -0.65
91.84563 -0.65
91.87797 -0.65
91.9113 -0.65
91.941 -0.65
91.9719 -0.65
92.00523 -0.65
92.03668 -0.65
92.07001 -0.65
92.10161 -0.65
92.13495 -0.65
92.16468 -0.65
92.19801 -0.65
92.23135 -0.65
92.26268 -0.65
92.29363 -0.65
92.32393 -0.65
92.35208 -0.65
92.38541 -0.65
92.41368 -0.65
92.44405 -0.65
92.47195 -0.65
92.50122 -0.65
92.53455 -0.65
92.56407 -0.65
92.59245 -0.65
92.62257 -0.65
92.65473 -0.65
92.68806 -0.65
92.71687 -0.65
92.74776 -0.65
92.77947 -0.65
92.80991 -0.65
92.84325 -0.65
92.87389 -0.65
92.90723 -0.65
92.94056 -0.65
92.97026 -0.65
93.00359 -0.65
93.03466 -0.65
93.06799 -0.65
93.09946 -0.65
93.1328 -0.65
93.16614 -0.65
93.19553 -0.65
93.22495 -0.65
93.2556 -0.65
93.28438 -0.65
93.31771 -0.65
93.34641 -0.65
93.37702 -0.65
93.40592 -0.65
93.43602 -0.65
93.46935 -0.65
93.50104 -0.65
93.52946 -0.65
93.55826 -0.65
93.58636 -0.65
93.6197 -0.65
93.64785 -0.65
93.68095 -0.65
93.71429 -0.65
93.74387 -0.65
93.77721 -0.65
93.81054 -0.65
93.84387 -0.65
93.8772 -0.65
93.90611 -0.65
93.93945 -0.65
93.96774 -0.65
93.99756 -0.65
94.03069 -0.65
94.06194 -0.65
94.09528 -0.65
94.12672 -0.65
94.15776 -0.65
94.18774 -0.65
94.21801 -0.65
94.25134 -0.65
94.28172 -0.65
94.3117 -0.65
94.3438 -0.65
94.37408 -0.65
94.40742 -0.65
94.43786 -0.65
94.46661 -0.65
94.49745 -0.65
94.53078 -0.65
94.56412 -0.65
94.59692 -0.65
94.63025 -0.65
94.65968 -0.65
94.69302 -0.65
94.72635 -0.65
94.7567 -0.65
94.79003 -0.65
94.82169 -0.65
94.85174 -0.65
94.88507 -0.65
94.91467 -0.65
94.948 -0.65
94.97991 -0.65
95.01241 -0.65
95.04575 -0.65
95.07718 -0.65
95.11051 -0.65
95.13934 -0.65
95.16871 -0.65
95.20204 -0.65
95.23059 -0.65
95.26068 -0.65
95.29055 -0.65
95.32366 -0.65
95.35699 -0.65
95.39033 -0.65
95.4191 -0.65
95.45243 -0.65
95.48576 -0.65
95.5191 -0.65
95.54887 -0.65
95.57821 -0.65
95.61092 -0.65
95.64155 -0.65
95.67488 -0.65
95.70821 -0.65
95.73943 -0.65
95.77161 -0.65
95.80494 -0.65
95.83827 -0.65
95.87001 -0.65
95.90334 -0.65
95.93668 -0.65
95.96946 -0.65
96.00279 -0.65
96.03435 -0.65
96.06446 -0.65
96.09425 -0.65
96.12372 -0.65
96.15705 -0.65
96.19038 -0.65
96.22196 -0.65
96.25215 -0.65
96.28292 -0.65
96.31625 -0.65
96.34959 -0.65
96.38155 -0.65
96.41116 -0.65
96.44059 -0.65
96.47392 -0.65
96.50273 -0.65
96.53198 -0.65
96.56216 -0.65
96.59466 -0.65
96.62799 -0.65
96.65981 -0.65
96.69315 -0.65
96.72365 -0.65
96.75365 -0.65
96.78698 -0.65
96.81586 -0.65
96.84769 -0.65
96.87862 -0.65
96.91196 -0.65
96.94529 -0.65
96.97863 -0.65
97.01196 -0.65
97.0453 -0.65
97.07863 -0.65
97.10851 -0.65
97.1381 -0.65
97.17084 -0.65
97.19978 -0.65
97.23311 -0.65
97.26485 -0.65
97.29818 -0.65
97.33112 -0.65
97.36144 -0.65
97.39478 -0.65
97.42535 -0.65
97.45565 -0.65
97.48898 -0.65
97.52221 -0.65
97.55554 -0.65
97.58887 -0.65
97.62025 -0.65
97.64977 -0.65
97.6831 -0.65
97.71643 -0.65
97.74709 -0.65
97.77646 -0.65
97.80646 -0.65
97.83979 -0.65
97.87312 -0.65
97.90192 -0.65
97.93285 -0.65
97.96101 -0.65
97.99317 -0.65
98.0265 -0.65
98.05984 -0.65
98.09298 -0.65
98.12562 -0.65
98.15479 -0.65
98.18813 -0.65
98.22146 -0.65
98.25337 -0.65
98.28226 -0.65
98.31559 -0.65
98.34892 -0.65
98.37797 -0.65
98.4113 -0.65
98.4408 -0.65
98.47009 -0.65
98.50343 -0.65
98.53395 -0.65
98.56442 -0.65
98.59776 -0.65
98.62872 -0.65
98.66205 -0.65
98.69428 -0.65
98.72424 -0.65
98.75381 -0.65
98.78306 -0.65
98.81639 -0.65
98.84657 -0.65
98.8799 -0.65
98.91003 -0.65
98.94094 -0.65
98.97427 -0.65
99.00761 -0.65
99.03617 -0.65
99.0695 -0.65
99.10155 -0.65
99.13488 -0.65
99.16378 -0.65
99.19405 -0.65
99.22613 -0.65
99.25714 -0.65
99.29047 -0.65
99.31972 -0.65
99.34995 -0.65
99.38107 -0.65
99.40964 -0.65
99.44297 -0.65
99.47141 -0.65
99.50198 -0.65
99.53531 -0.65
99.56671 -0.65
99.60004 -0.65
99.62975 -0.65
99.66064 -0.65
99.69339 -0.65
99.72282 -0.65
99.75615 -0.65
99.78948 -0.65
99.82104 -0.65
99.85122 -0.65
99.88319 -0.65
99.91652 -0.65
99.94975 -0.65
99.97816 -0.65
100.0077 -0.65
100.0386 -0.65
100.0719 -0.65
100.1009 -0.65
100.1342 -0.65
100.1642 -0.65
100.1949 -0.65
100.2282 -0.65
100.2604 -0.65
100.2902 -0.65
100.3213 -0.65
100.3547 -0.65
100.388 -0.65
100.4208 -0.65
100.4518 -0.65
100.4811 -0.65
100.5144 -0.65
100.5477 -0.65
100.5811 -0.65
100.6086 -0.65
100.6419 -0.65
100.6709 -0.65
100.7042 -0.65
100.7359 -0.65
100.7692 -0.65
100.8002 -0.65
100.8328 -0.65
100.8661 -0.65
100.8991 -0.65
100.9324 -0.65
100.9655 -0.65
100.9946 -0.65
101.0279 -0.65
101.0612 -0.65
101.0927 -0.65
101.1212 -0.65
101.1515 -0.65
101.1849 -0.65
101.2156 -0.65
101.249 -0.65
101.2823 -0.65
101.3135 -0.65
101.3469 -0.65
101.3752 -0.65
101.4067 -0.65
101.4358 -0.65
101.4657 -0.65
101.499 -0.65
101.5324 -0.65
101.562 -0.65
101.5927 -0.65
101.6249 -0.65
101.6582 -0.65
101.6897 -0.65
101.7225 -0.65
101.7518 -0.65
101.7828 -0.65
101.8161 -0.65
101.8495 -0.65
101.8828 -0.65
101.9154 -0.65
101.9471 -0.65
101.9805 -0.65
102.0098 -0.65
102.0431 -0.65
102.0738 -0.65
102.1038 -0.65
102.1371 -0.65
102.1703 -0.65
102.2036 -0.65
102.2361 -0.65
102.2653 -0.65
102.2987 -0.65
102.3279 -0.65
102.3613 -0.65
102.3915 -0.65
102.422 -0.65
102.4554 -0.65
102.4887 -0.65
102.522 -0.65
102.5508 -0.65
102.5814 -0.65
102.6147 -0.65
102.6458 -0.65
102.6791 -0.65
102.7081 -0.65
102.7385 -0.65
102.7718 -0.65
102.8052 -0.65
102.8351 -0.65
102.8646 -0.65
102.8931 -0.65
102.9264 -0.65
102.9597 -0.65
102.9887 -0.65
103.0187 -0.65
103.052 -0.65
103.0854 -0.65
103.1172 -0.65
103.1497 -0.65
103.1831 -0.65
103.2164 -0.65
103.2497 -0.65
103.2831 -0.65
103.3157 -0.65
103.3475 -0.65
103.3808 -0.65
103.4142 -0.65
103.4475 -0.65
103.4783 -0.65
103.5089 -0.65
103.5416 -0.65
103.5749 -0.65
103.6082 -0.65
103.6416 -0.65
103.6705 -0.65
103.7014 -0.65
103.7347 -0.65
103.7658 -0.65
103.7948 -0.65
103.8281 -0.65
103.8615 -0.65
103.8948 -0.65
103.9249 -0.65
103.9559 -0.65
103.9846 -0.65
104.0155 -0.65
104.0488 -0.65
104.0782 -0.65
104.1066 -0.65
104.1376 -0.65
104.171 -0.65
104.2043 -0.65
104.2376 -0.65
104.2676 -0.65
104.2991 -0.65
104.3324 -0.65
104.3657 -0.65
104.3991 -0.65
104.4289 -0.65
104.4607 -0.65
104.4935 -0.65
104.5268 -0.65
104.5602 -0.65
104.5935 -0.65
104.6252 -0.65
104.6561 -0.65
104.6895 -0.65
104.7228 -0.65
104.7516 -0.65
104.7814 -0.65
104.8105 -0.65
104.8438 -0.65
104.8734 -0.65
104.9067 -0.65
104.9347 -0.65
104.9657 -0.65
104.9991 -0.65
105.0287 -0.65
105.0607 -0.65
105.0906 -0.65
105.1232 -0.65
105.1565 -0.65
105.1879 -0.65
105.217 -0.65
105.2489 -0.65
105.2788 -0.65
105.3122 -0.65
105.3455 -0.65
105.3764 -0.65
105.4098 -0.65
105.4393 -0.65
105.4727 -0.65
105.506 -0.65
105.5363 -0.65
105.5695 -0.65
105.6019 -0.65
105.6353 -0.65
105.6639 -0.65
105.6967 -0.65
105.7257 -0.65
105.7544 -0.65
105.7878 -0.65
105.8167 -0.65
105.8459 -0.65
105.874 -0.65
105.9034 -0.65
105.9367 -0.65
105.9682 -0.65
105.9964 -0.65
106.0255 -0.65
106.0552 -0.65
106.0885 -0.65
106.1215 -0.65
106.1536 -0.65
106.187 -0.65
106.2163 -0.65
106.2496 -0.65
106.28 -0.65
106.3082 -0.65
106.3378 -0.65
106.3671 -0.65
106.4004 -0.65
106.4287 -0.65
106.462 -0.65
106.492 -0.65
106.5215 -0.65
106.5548 -0.65
106.5844 -0.65
106.6132 -0.65
106.6465 -0.65
106.6768 -0.65
106.7101 -0.65
106.7391 -0.65
106.7719 -0.65
106.8003 -0.65
106.8337 -0.65
106.867 -0.65
106.9003 -0.65
106.933 -0.65
106.9655 -0.65
106.9989 -0.65
107.0322 -0.65
107.0635 -0.65
107.0968 -0.65
107.1277 -0.65
107.1608 -0.65
107.1941 -0.65
107.224 -0.65
107.2539 -0.65
107.2872 -0.65
107.3176 -0.65
107.351 -0.65
107.3818 -0.65
107.4123 -0.65
107.4453 -0.65
107.4755 -0.65
107.5089 -0.65
107.5406 -0.65
107.5697 -0.65
107.603 -0.65
107.6351 -0.65
107.6684 -0.65
107.7005 -0.65
107.7328 -0.65
107.7615 -0.65
107.7937 -0.65
107.827 -0.65
107.8585 -0.65
107.8875 -0.65
107.9174 -0.65
107.9464 -0.65
107.9798 -0.65
108.0095 -0.65
108.0421 -0.65
108.0712 -0.65
108.1017 -0.65
108.135 -0.65
108.1656 -0.65
108.1971 -0.65
108.2304 -0.65
108.2607 -0.65
108.294 -0.65
108.3261 -0.65
108.3577 -0.65
108.3883 -0.65
108.4188 -0.65
108.4521 -0.65
108.4827 -0.65
108.5132 -0.65
108.5437 -0.65
108.574 -0.65
108.6073 -0.65
108.636 -0.65
108.6665 -0.65
108.6953 -0.65
108.7248 -0.65
108.7581 -0.65
108.7879 -0.65
108.8212 -0.65
108.8528 -0.65
108.8821 -0.65
108.9154 -0.65
108.945 -0.65
108.9784 -0.65
109.0077 -0.65
109.0397 -0.65
109.073 -0.65
109.1049 -0.65
109.1351 -0.65
109.1675 -0.65
109.1973 -0.65
109.2307 -0.65
109.264 -0.65
109.2939 -0.65
109.3249 -0.65
109.3582 -0.65
109.3915 -0.65
109.4249 -0.65
109.4582 -0.65
109.4912 -0.65
109.5245 -0.65
109.5578 -0.65
109.5889 -0.65
109.6199 -0.65
109.6499 -0.65
109.6806 -0.65
109.7139 -0.65
109.7439 -0.65
109.7758 -0.65
109.8076 -0.65
109.84 -0.65
109.8733 -0.65
109.9066 -0.65
109.9371 -0.65
109.9676 -0.65
110.0009 -0.65
110.0342 -0.65
110.0652 -0.65
110.0986 -0.65
110.1298 -0.65
110.1601 -0.65
110.1935 -0.65
110.2256 -0.65
110.2554 -0.65
110.286 -0.65
110.3171 -0.65
110.3505 -0.65
110.3819 -0.65
110.4153 -0.65
110.4466 -0.65
110.4779 -0.65
110.5112 -0.65
110.5403 -0.65
110.5737 -0.65
110.6032 -0.65
110.6337 -0.65
110.667 -0.65
110.6983 -0.65
110.7274 -0.65
110.7607 -0.65
110.791 -0.65
110.8243 -0.65
110.854 -0.65
110.8873 -0.65
110.9173 -0.65
110.9506 -0.65
110.984 -0.65
111.0173 -0.65
111.0478 -0.65
111.0788 -0.65
111.1085 -0.65
111.1418 -0.65
111.1729 -0.65
111.2045 -0.65
111.2363 -0.65
111.2696 -0.65
111.3029 -0.65
111.3363 -0.65
111.3673 -0.65
111.3996 -0.65
111.4298 -0.65
111.4632 -0.65
111.4965 -0.65
111.5298 -0.65
111.5598 -0.65
111.5904 -0.65
111.6237 -0.65
111.6548 -0.65
111.6843 -0.65
111.7152 -0.65
111.7458 -0.65
111.7791 -0.65
111.8089 -0.65
111.8401 -0.65
111.869 -0.65
111.9022 -0.65
111.9355 -0.65
111.9664 -0.65
111.9956 -0.65
112.0273 -0.65
112.0572 -0.65
112.0906 -0.65
112.1193 -0.65
112.1502 -0.65
112.1794 -0.65
112.2114 -0.65
112.2448 -0.65
112.2769 -0.65
112.3083 -0.65
112.3416 -0.65
112.3717 -0.65
112.405 -0.65
112.4384 -0.65
112.4717 -0.65
112.5009 -0.65
112.5337 -0.65
112.567 -0.65
112.5979 -0.65
112.6305 -0.65
112.6638 -0.65
112.6972 -0.65
112.7305 -0.65
112.76 -0.65
112.7933 -0.65
112.8267 -0.65
112.857 -0.65
112.8904 -0.65
112.9223 -0.65
112.9556 -0.65
112.9872 -0.65
113.0185 -0.65
113.0519 -0.65
113.0837 -0.65
113.1142 -0.65
113.1449 -0.65
113.1782 -0.65
113.2115 -0.65
113.2417 -0.65
113.2725 -0.65
113.3059 -0.65
113.3362 -0.65
113.3695 -0.65
113.4015 -0.65
113.4322 -0.65
113.4615 -0.65
113.4946 -0.65
113.5279 -0.65
113.5581 -0.65
113.5892 -0.65
113.6193 -0.65
113.6485 -0.65
113.6818 -0.65
113.713 -0.65
113.7437 -0.65
113.776 -0.65
113.8055 -0.65
113.8388 -0.65
113.8722 -0.65
113.9055 -0.65
113.9376 -0.65
113.9708 -0.65
114.0042 -0.65
114.0342 -0.65
114.0668 -0.65
114.0998 -0.65
114.1331 -0.65
114.1664 -0.65
114.1979 -0.65
114.2313 -0.65
114.2612 -0.65
114.2945 -0.65
114.3279 -0.65
114.3569 -0.65
114.3869 -0.65
114.4203 -0.65
114.4516 -0.65
114.4849 -0.65
114.5183 -0.65
114.5496 -0.65
114.5817 -0.65
114.6121 -0.65
114.6455 -0.65
114.6745 -0.65
114.7046 -0.65
114.7349 -0.65
114.7678 -0.65
114.8011 -0.65
114.8328 -0.65
114.8661 -0.65
114.8995 -0.65
114.9291 -0.65
114.9625 -0.65
114.9939 -0.65
115.0241 -0.65
115.0548 -0.65
115.0882 -0.65
115.1215 -0.65
115.1548 -0.65
115.1869 -0.65
115.2183 -0.65
115.2511 -0.65
115.2845 -0.65
115.3178 -0.65
115.3481 -0.65
115.3806 -0.65
115.4119 -0.65
115.4452 -0.65
115.4786 -0.65
115.5119 -0.65
115.5452 -0.65
115.5786 -0.65
115.6074 -0.65
115.6366 -0.65
115.667 -0.65
115.6973 -0.65
115.7307 -0.65
115.7619 -0.65
115.7952 -0.65
115.8272 -0.65
115.8581 -0.65
115.8914 -0.65
115.9248 -0.65
115.9581 -0.65
115.9914 -0.65
116.0247 -0.65
116.0566 -0.65
116.0855 -0.65
116.1157 -0.65
116.1452 -0.65
116.1785 -0.65
116.2084 -0.65
116.2417 -0.65
116.2705 -0.65
116.3017 -0.65
116.335 -1.5
116.3658 -1.5
116.3969 -1.5
116.4302 -1.5
116.4604 -1.5
116.4937 -1.5
116.5226 -1.5
116.5559 -1.5
116.5849 -1.5
116.6155 -1.5
116.6488 -1.5
116.6786 -1.5
116.7117 -1.5
116.742 -1.5
116.7743 -1.5
116.8076 -1.7
116.8401 -1.7
116.8703 -2.15
116.8996 -2.15
116.9306 -2.6
116.964 -3.45
116.9973 -4.15
117.0306 -4.15
117.0616 -4.35
117.0931 -4.55
117.1265 -4.55
117.1596 -4.55
117.1907 -4.55
117.2218 -4.55
117.2551 -4.55
117.2885 -4.55
117.3203 -4.55
117.3498 -4.55
117.3819 -4.55
117.4152 -4.55
117.4485 -4.55
117.4784 -4.55
117.5089 -4.55
117.5387 -4.55
117.5712 -4.55
117.6045 -4.55
117.6344 -4.55
117.6677 -4.55
117.7011 -4.55
117.731 -4.55
117.7644 -4.55
117.7938 -4.55
117.8263 -4.55
117.856 -4.55
117.8893 -4.55
117.9227 -4.55
117.956 -4.55
117.9893 -4.55
118.0227 -4.55
118.056 -4.55
118.0893 -4.55
118.1202 -4.55
118.1511 -4.55
118.1817 -4.55
118.2151 -4.55
118.2484 -4.55
118.2793 -4.55
118.3091 -4.55
118.3424 -4.55
118.3727 -4.55
118.406 -4.55
118.4356 -4.8
118.4683 -4.8
118.4989 -5
118.5322 -5
118.5656 -5
118.5984 -5
118.63 -5
118.6602 -5
118.6907 -5
118.724 -5
118.7549 -5
118.7864 -5
118.8172 -5
118.8506 -5
118.8839 -5
118.9172 -5
118.9484 -5
118.9809 -5
119.011 -5
119.0443 -5
119.0757 -5
119.109 -5
119.1424 -5
119.1757 -5
119.209 -5
119.2419 -5
119.2709 -5
119.3008 -5
119.3308 -5
119.3641 -5
119.3937 -5
119.427 -5
119.4582 -5
119.4894 -5
119.5227 -5
119.556 -5
119.5858 -5
119.6163 -5
119.646 -5
119.6793 -5
119.7083 -5
119.7399 -5
119.7719 -5
119.804 -5
119.8373 -5
119.8683 -5
119.9016 -5
119.9322 -5
119.9626 -5
119.9959 -5
120.0293 -5
120.0604 -5
120.0922 -5
120.1254 -5
120.1588 -5
120.1921 -5
120.2212 -5
120.2545 -5
120.287 -5
120.3203 -5
120.3501 -5
120.3835 -5
120.4117 -5
120.4447 -5
120.4781 -5
120.5104 -5
120.5416 -5
120.5732 -5
120.6066 -5
120.6399 -5
120.6711 -5
120.7014 -5
120.7347 -4.8
120.7657 -4.8
120.799 -4.55
120.8323 -4.35
120.8642 -4.35
120.8975 -4.35
120.9279 -4.15
120.9613 -3.9
120.9912 -3.9
121.0245 -3.45
121.0578 -3.45
121.0912 -3.45
121.1245 -3.45
121.1556 -3.45
121.189 -3.25
121.2197 -3.25
121.249 -3.25
121.2791 -3.25
121.3084 -3.05
121.3417 -2.8
121.3729 -2.8
121.4063 -2.6
121.435 -2.6
121.4683 -2.6
121.5016 -2.6
121.535 -2.6
121.5644 -2.6
121.5943 -2.6
121.6236 -2.6
121.6569 -2.6
121.6882 -2.6
121.7183 -2.6
121.7517 -2.6
121.781 -2.6
121.8144 -2.6
121.8455 -2.6
121.8788 -2.6
121.9121 -2.6
121.9433 -2.6
121.9766 -2.6
122.0061 -2.6
122.0394 -2.6
122.0716 -2.6
122.1049 -2.6
122.1383 -2.8
122.1706 -2.8
122.204 -2.8
122.2339 -3.25
122.2657 -3.25
122.299 -3.45
122.3305 -3.7
122.3614 -3.7
122.3923 -3.9
122.4242 -4.15
122.4575 -4.15
122.4904 -4.15
122.5231 -4.15
122.5541 -4.15
122.5841 -4.15
122.6175 -4.15
122.6508 -4.15
122.6834 -4.15
122.714 -4.15
122.746 -4.15
122.7793 -4.15
122.8127 -4.15
122.8425 -4.15
122.873 -4.15
122.9054 -4.15
122.9387 -4.15
122.9678 -4.15
122.9994 -4.15
123.0301 -4.15
123.0605 -4.15
123.0939 -4.15
123.1254 -4.15
123.155 -4.15
123.1884 -4.15
123.2176 -4.15
123.2509 -4.15
123.2843 -4.15
123.3161 -4.15
123.3484 -4.15
123.3779 -4.15
123.4113 -4.15
123.4422 -4.15
123.4721 -4.15
123.5055 -4.15
123.5388 -4.15
123.5721 -4.15
123.6055 -4.15
123.6388 -4.15
123.6721 -4.15
123.7055 -4.15
123.7388 -4.15
123.7688 -4.15
123.7983 -4.15
123.8316 -4.15
123.8609 -4.15
123.8942 -4.15
123.9241 -4.15
123.9561 -4.15
123.9848 -4.15
124.0181 -4.15
124.0515 -4.15
124.0845 -4.15
124.1167 -4.15
124.1474 -4.15
124.1793 -4.15
124.2126 -4.15
124.2431 -4.15
124.2765 -4.15
124.3054 -4.15
124.3388 -4.15
124.3721 -4.15
124.4054 -4.15
124.4345 -4.15
124.4642 -4.15
124.4969 -4.15
124.5302 -4.15
124.5636 -4.15
124.5944 -4.15
124.6242 -4.15
124.6559 -4.15
124.6892 -4.15
124.7201 -4.15
124.7499 -4.15
124.7803 -4.15
124.8095 -4.15
124.8428 -4.15
124.8719 -4.15
124.903 -4.15
124.9321 -4.15
124.9655 -4.15
124.9988 -4.15
125.0321 -4.15
125.063 -4.15
125.094 -4.15
125.1241 -4.15
125.1574 -4.15
125.1906 -4.15
125.2208 -4.15
125.2536 -4.15
125.2853 -4.15
125.3187 -4.15
125.3486 -4.15
125.3798 -4.15
125.4102 -4.15
125.4396 -4.15
125.473 -4.15
125.5022 -4.15
125.5338 -4.15
125.5671 -4.15
125.598 -4.15
125.6313 -4.15
125.6632 -4.15
125.6939 -4.15
125.7258 -4.15
125.7587 -4.15
125.792 -4.15
125.8253 -4.15
125.8566 -4.15
125.8878 -4.15
125.9192 -4.15
125.9525 -4.15
125.9827 -4.15
126.0136 -4.15
126.0469 -4.15
126.0765 -4.15
126.1098 -4.15
126.1388 -4.15
126.1693 -4.15
126.2002 -4.15
126.233 -4.15
126.2663 -4.15
126.2997 -4.15
126.333 -4.15
126.3646 -4.15
126.3952 -4.15
126.4286 -4.15
126.4619 -4.15
126.4926 -4.15
126.5219 -4.15
126.5553 -4.15
126.5886 -4.15
126.6219 -4.15
126.6542 -4.15
126.6859 -4.15
126.7153 -4.15
126.7486 -4.15
126.7804 -4.15
126.8127 -4.15
126.8415 -4.15
126.8717 -4.15
126.905 -4.15
126.9353 -4.15
126.9643 -4.15
126.9966 -4.15
127.0267 -4.15
127.06 -4.15
127.0898 -4.15
127.1231 -4.15
127.1522 -4.15
127.1843 -4.15
127.2176 -4.15
127.251 -4.15
127.281 -4.15
127.3114 -4.15
127.3414 -4.15
127.3747 -4.15
127.4081 -4.15
127.4385 -4.15
127.4698 -4.15
127.5022 -4.15
127.5355 -4.15
127.5688 -4.15
127.6003 -4.15
127.6302 -4.15
127.6636 -4.15
127.6969 -4.15
127.727 -4.15
127.758 -4.15
127.7913 -4.15
127.8246 -4.15
127.858 -4.15
127.8913 -4.15
127.9234 -4.15
127.9544 -4.15
127.9842 -4.15
128.0175 -4.15
128.0464 -4.15
128.078 -4.15
128.1111 -4.15
128.1445 -4.35
128.1778 -4.35
128.2085 -4.8
128.2381 -4.8
128.2714 -5
128.3033 -5
128.3366 -5
128.3659 -5
128.3958 -5
128.4271 -5
128.4575 -5
128.4908 -5
128.5214 -5
128.5511 -5
128.5825 -5
128.6158 -5
128.6491 -5
128.6796 -5
128.7112 -5
128.74 -5
128.7723 -5
128.8056 -5
128.8389 -5
128.8687 -5
128.902 -5
128.9353 -5
128.9687 -5
128.9979 -5
129.0312 -5
129.0589 -5
129.0909 -5
129.1242 -5
129.1574 -5
129.1874 -5
129.2186 -5
129.2508 -5
129.2842 -5
129.314 -5
129.3473 -5
129.3769 -5
129.4089 -5
129.4422 -5
129.4748 -5
129.5045 -5
129.5348 -5
129.5649 -5
129.5982 -5
129.6315 -5
129.6648 -5
129.6981 -5
129.7293 -5
129.7626 -5
129.7928 -5
129.8216 -5
129.8524 -5
129.8831 -5
129.9164 -5
129.9457 -5
129.976 -5
130.0094 -5
130.0411 -5
130.0745 -5
130.1075 -5
130.1391 -5
130.1697 -5
130.202 -5
130.2354 -5
130.2676 -5
130.3009 -5
130.3306 -5
130.3639 -5
130.3972 -5
130.4272 -5
130.4561 -5
130.4885 -5
130.5191 -5
130.5525 -5
130.5852 -5
130.6168 -5
130.6467 -5
130.6783 -5
130.7116 -5
130.7439 -5
130.7736 -5
130.8069 -5
130.8403 -5
130.8736 -5
130.9045 -5
130.936 -5
130.965 -5
130.9984 -5
131.0317 -5
131.0643 -5
131.0931 -5
131.1264 -5
131.1564 -5
131.1897 -5
131.2187 -5
131.252 -5
131.2813 -5
131.3146 -5
131.3479 -5
131.3792 -5
131.4103 -5
131.4436 -5
131.4731 -5
131.5064 -5
131.5363 -5
131.5688 -5
131.5982 -5
131.6316 -5
131.6649 -5
131.6968 -5
131.7301 -5
131.7601 -5
131.7935 -5
131.8268 -5
131.8566 -5
131.8879 -5
131.9187 -5
131.9521 -5
131.9854 -5
132.0157 -5
132.049 -5
132.0823 -5
132.1157 -5
132.149 -5
132.1788 -5
132.2116 -5
132.2429 -5
132.276 -5
132.3093 -5
132.3423 -5
132.3728 -5
132.4061 -5
132.436 -5
132.4693 -5
132.5026 -5
132.5332 -5
132.5632 -5
132.5965 -5
132.6298 -5
132.6613 -5
132.6915 -5
132.7243 -5
132.7533 -5
132.7866 -5
132.8162 -5
132.8463 -5
132.8764 -5
132.9082 -5
132.9415 -5
132.9731 -5
133.0039 -5
133.0372 -5
133.0674 -5
133.1008 -5
133.1341 -5
133.166 -5
133.1971 -5
133.2303 -5
133.2636 -5
133.2945 -5
133.3278 -5
133.3599 -5
133.3895 -5
133.4228 -5
133.4553 -5
133.4863 -5
133.5189 -5
133.5507 -5
133.5841 -5
133.6138 -5
133.6425 -5
133.6736 -5
133.7058 -5
133.7391 -5
133.7682 -5
133.8016 -5
133.8311 -5
133.864 -5
133.8974 -5
133.9269 -5
133.9599 -5
133.9901 -5
134.0197 -5
134.053 -5
134.0842 -5
134.1176 -5
134.1509 -5
134.1835 -5
134.2168 -5
134.2502 -5
134.2799 -5
134.3116 -5
134.3428 -5
134.3761 -5
134.4091 -5
134.4425 -5
134.4758 -5
134.5065 -5
134.5398 -5
134.5719 -5
134.6011 -5
134.6332 -5
134.664 -5
134.6973 -5
134.7281 -5
134.759 -5
134.7916 -5
134.8216 -5
134.8549 -5
134.884 -5
134.9174 -5
134.9481 -5
134.9811 -5
135.0145 -5
135.0441 -5
135.0736 -5
135.1044 -5
135.1348 -5
135.1681 -5
135.1989 -5
135.2306 -5
135.2618 -5
135.2939 -5
135.3272 -5
135.3568 -5
135.3864 -5
135.4198 -5
135.4531 -5
135.4864 -4.8
135.5158 -4.55
135.5459 -4.55
135.5773 -4.35
135.6107 -4.35
135.644 -4.35
135.6771 -4.35
135.7069 -4.35
135.7358 -4.35
135.7654 -4.35
135.7988 -4.35
135.829 -4.35
135.8578 -4.35
135.8892 -4.35
135.9203 -4.35
135.9536 -4.35
135.9824 -4.35
136.0158 -4.35
136.0447 -4.35
136.0759 -4.35
136.1092 -4.35
136.1397 -4.35
136.1685 -4.35
136.2009 -4.35
136.2342 -4.35
136.2676 -4.35
136.3009 -4.35
136.3342 -4.35
136.3676 -4.35
136.3974 -4.35
136.4308 -4.35
136.4617 -4.35
136.495 -4.35
136.5252 -4.35
136.5557 -4.35
136.589 -4.35
136.6201 -4.35
136.6534 -4.35
136.6815 -4.35
136.7131 -4.35
136.7464 -4.35
136.7798 -4.35
136.8131 -4.35
136.8439 -4.35
136.8745 -4.35
136.9078 -4.35
136.937 -4.35
136.9668 -4.35
136.9962 -4.35
137.0285 -4.35
137.0619 -4.35
137.0921 -4.35
137.1216 -4.35
137.1524 -4.35
137.1857 -4.35
137.2191 -4.35
137.2473 -4.35
137.2806 -4.35
137.3111 -4.35
137.3421 -4.35
137.3755 -4.35
137.407 -4.35
137.438 -4.35
137.4704 -4.35
137.5003 -4.35
137.5336 -4.35
137.5633 -4.35
137.5938 -4.35
137.6259 -4.35
137.6565 -4.35
137.6898 -4.35
137.7196 -4.35
137.75 -4.35
137.7833 -4.35
137.8166 -4.35
137.8499 -4.35
137.8831 -4.35
137.9164 -4.35
137.9464 -4.35
137.9795 -4.35
138.0128 -4.35
138.0445 -4.35
138.0779 -4.35
138.1094 -4.35
138.1427 -4.35
138.176 -4.35
138.205 -4.35
138.2352 -4.35
138.2662 -4.35
138.2996 -4.35
138.3329 -4.35
138.3634 -4.35
138.3953 -4.35
138.4285 -4.35
138.4591 -4.35
138.4924 -4.35
138.523 -4.55
138.5563 -4.55
138.5861 -4.55
138.6187 -4.55
138.652 -4.55
138.6854 -4.55
138.7164 -4.55
138.7462 -4.55
138.7754 -4.55
138.8088 -4.55
138.8419 -4.55
138.8752 -4.55
138.9075 -4.55
138.9409 -4.55
138.9742 -4.55
139.0056 -4.55
139.0362 -4.55
139.0682 -4.55
139.0991 -4.55
139.1324 -4.55
139.1629 -4.55
139.1933 -4.55
139.223 -4.55
139.2563 -4.55
139.2897 -4.55
139.3203 -4.55
139.3527 -4.55
139.3833 -4.55
139.4166 -4.55
139.4499 -4.55
139.4802 -4.55
139.5108 -4.55
139.5442 -4.55
139.5775 -4.55
139.6108 -4.55
139.6415 -4.55
139.6721 -4.55
139.7054 -4.55
139.7348 -4.55
139.7681 -4.55
139.7971 -4.55
139.8274 -4.55
139.8566 -4.55
139.8868 -4.55
139.9201 -4.55
139.9534 -4.55
139.9835 -4.55
140.0168 -4.55
140.0463 -4.55
140.0796 -4.55
140.1109 -4.55
140.1443 -4.55
140.1751 -4.55
140.2084 -4.55
140.2418 -4.55
140.2723 -4.55
140.3036 -4.55
140.3358 -4.55
140.3665 -4.55
140.3998 -4.55
140.4331 -4.55
140.464 -4.55
140.4921 -4.55
140.5229 -4.55
140.5563 -4.55
140.5854 -4.55
140.6176 -4.55
140.6497 -4.55
140.6802 -4.55
140.7136 -4.55
140.7453 -4.55
140.7787 -4.55
140.8083 -4.55
140.8383 -4.55
140.8717 -4.55
140.9026 -4.55
140.9329 -4.55
140.9627 -4.55
140.9934 -4.55
141.0267 -4.55
141.0559 -4.55
141.0892 -4.55
141.1205 -4.55
141.1514 -4.55
141.1848 -4.55
141.2166 -4.55
141.2499 -4.55
141.2821 -4.55
141.3122 -4.55
141.3456 -4.55
141.3744 -4.55
141.407 -4.55
141.4358 -4.55
141.4691 -4.55
141.5025 -4.55
141.5343 -4.55
141.5676 -4.55
141.599 -4.55
141.629 -4.55
141.6623 -4.55
141.6925 -4.55
141.7258 -4.55
141.7565 -4.55
141.7898 -4.55
141.8231 -4.55
141.8543 -4.55
141.8856 -4.55
141.919 -4.55
141.9492 -4.55
141.9826 -4.55
142.0156 -4.55
142.0489 -4.55
142.0822 -4.55
142.1126 -4.55
142.1459 -4.55
142.1765 -4.55
142.2098 -4.55
142.2399 -4.55
142.2691 -4.55
142.3024 -4.55
142.3327 -4.55
142.366 -4.55
142.395 -4.55
142.4248 -4.55
142.4581 -4.55
142.4884 -4.55
142.5171 -4.55
142.5481 -4.55
142.5815 -4.55
142.6148 -4.55
142.6467 -4.55
142.677 -4.55
142.7102 -4.55
142.7434 -4.55
142.7768 -4.55
142.8082 -4.55
142.8387 -4.55
142.872 -4.55
142.9051 -4.55
142.9385 -4.55
142.9689 -4.55
143.0004 -4.55
143.0299 -4.55
143.0608 -4.55
143.0941 -4.55
143.1269 -4.55
143.1603 -4.55
143.1936 -4.55
143.2263 -4.55
143.2597 -4.55
143.293 -4.55
143.3226 -4.55
143.3527 -4.55
143.3858 -4.55
143.4191 -4.55
143.4502 -4.55
143.4832 -4.55
143.5149 -4.55
143.5463 -4.55
143.5797 -4.55
143.6097 -4.55
143.6398 -4.55
143.6731 -4.55
143.7047 -4.55
143.738 -4.55
143.7688 -4.55
143.7975 -4.55
143.8308 -4.55
143.8608 -4.55
143.8941 -4.55
143.9242 -4.55
143.9576 -4.55
143.9892 -4.55
144.0198 -4.55
144.0531 -4.55
144.0858 -4.55
144.1163 -4.55
144.1497 -4.55
144.1816 -4.55
144.215 -4.55
144.2446 -4.55
144.2746 -4.55
144.3053 -4.55
144.3386 -4.55
144.3719 -4.55
144.4024 -4.55
144.4318 -4.55
144.4614 -4.55
144.491 -4.55
144.5243 -4.55
144.5561 -4.55
144.587 -4.55
144.6182 -4.55
144.6509 -4.55
144.6843 -4.55
144.716 -4.55
144.746 -4.55
144.7794 -4.55
144.8127 -4.55
144.846 -4.55
144.8753 -4.55
144.907 -4.55
144.9401 -4.55
144.971 -4.55
145.0043 -4.55
145.0376 -4.55
145.0699 -4.55
145.1024 -4.55
145.1355 -4.55
145.1689 -4.55
145.2022 -4.55
145.2338 -4.55
145.2656 -4.55
145.299 -4.55
145.3323 -4.55
145.3636 -4.55
145.3925 -4.55
145.4236 -4.55
145.4525 -4.55
145.4859 -4.55
145.5167 -4.55
145.5489 -4.55
145.5801 -4.55
145.6135 -4.55
145.6468 -4.55
145.678 -4.55
145.7063 -4.55
145.7383 -4.55
145.7717 -4.55
145.805 -4.55
145.835 -4.55
145.8655 -4.55
145.8964 -4.55
145.9287 -4.55
145.962 -4.55
145.992 -4.55
146.0217 -4.55
146.0523 -4.55
146.0853 -4.55
146.1187 -4.55
146.1488 -4.55
146.1813 -4.55
146.2108 -4.55
146.2441 -4.55
146.2775 -4.55
146.3076 -4.55
146.341 -4.55
146.3743 -4.55
146.4046 -4.55
146.4379 -4.55
146.4713 -4.55
146.5018 -4.55
146.5316 -4.55
146.565 -4.55
146.5983 -4.55
146.6298 -4.55
146.6631 -4.55
146.6946 -4.55
146.7258 -4.55
146.7591 -4.55
146.7924 -4.55
146.8258 -4.55
146.8543 -4.55
146.8848 -4.55
146.9181 -4.55
146.9515 -4.55
146.9824 -4.55
147.0146 -4.55
147.047 -4.55
147.0803 -4.55
147.1136 -4.55
147.1436 -4.55
147.1742 -4.55
147.2055 -4.55
147.2389 -4.55
147.271 -4.55
147.2999 -4.55
147.3333 -4.55
147.3648 -4.55
147.3981 -4.55
147.428 -4.55
147.4588 -4.55
147.4915 -4.55
147.5249 -4.55
147.5582 -4.55
147.5882 -4.55
147.6176 -4.55
147.6486 -4.55
147.6801 -4.55
147.7135 -4.55
147.7427 -4.55
147.7727 -4.55
147.806 -4.55
147.8361 -4.55
147.8694 -4.55
147.9001 -4.55
147.9314 -4.55
147.9647 -4.55
147.9952 -4.55
148.0285 -4.55
148.0578 -4.55
148.0903 -4.55
148.1215 -4.55
148.1536 -4.55
148.1869 -4.55
148.2183 -4.55
148.2503 -4.55
148.2808 -4.55
148.3097 -4.55
148.343 -4.55
148.3728 -4.55
148.4061 -4.55
148.4355 -4.55
148.4666 -4.55
148.4999 -4.55
148.5297 -4.55
148.562 -4.55
148.5949 -4.55
148.6241 -4.55
148.6575 -4.55
148.6898 -4.55
148.7211 -4.55
148.7543 -4.55
148.7877 -4.55
148.821 -4.55
148.8541 -4.55
148.8874 -4.55
148.9204 -4.55
148.9495 -4.55
148.9829 -4.55
149.0122 -4.55
149.0435 -4.55
149.0735 -4.55
149.1039 -4.55
149.1373 -4.55
149.169 -4.55
149.1989 -4.55
149.229 -4.55
149.2623 -4.55
149.2957 -4.55
149.3285 -4.55
149.359 -4.55
149.3887 -4.55
149.422 -4.55
149.4553 -4.55
149.4856 -4.55
149.5165 -4.55
149.5498 -4.55
149.5791 -4.55
149.6125 -4.55
149.6458 -4.55
149.677 -4.55
149.7103 -4.55
149.7426 -4.55
149.7759 -4.55
149.8076 -4.55
149.8392 -4.55
149.8716 -4.55
149.9007 -4.55
149.9341 -4.55
149.963 -4.55
149.9922 -4.55
150.0247 -4.55
150.0553 -4.55
150.0886 -4.55
150.1219 -4.55
150.1526 -4.55
150.186 -4.55
150.2188 -4.55
150.2521 -4.55
150.2819 -4.55
150.3153 -4.55
150.3486 -4.55
150.3795 -4.55
150.4129 -4.55
150.4451 -4.55
150.4748 -4.55
150.5049 -4.55
150.5383 -4.55
150.5716 -4.55
150.6009 -4.55
150.6343 -4.55
150.6632 -4.55
150.6936 -4.55
150.727 -4.55
150.7603 -4.55
150.7913 -4.55
150.8213 -4.55
150.8546 -4.55
150.8879 -4.55
150.9213 -4.55
150.9523 -4.55
150.9814 -4.35
151.0134 -4.35
151.0467 -4.15
151.08 -3.9
151.1114 -3.9
151.1425 -3.25
151.1758 -2.8
151.2091 -2.8
151.2424 -2.4
151.2741 -2.4
151.304 -2.4
151.3345 -2.4
151.3678 -2.4
151.4001 -2.4
151.4292 -2.4
151.4626 -2.4
151.4934 -2.4
151.5268 -2.4
151.5573 -2.4
151.5889 -2.4
151.6222 -2.4
151.6534 -2.4
151.6867 -2.6
151.7186 -2.6
151.7499 -2.6
151.7812 -2.6
151.8145 -2.6
151.8478 -2.8
151.8785 -2.8
151.9119 -2.8
151.9435 -2.8
151.9768 -2.8
152.0102 -2.8
152.0435 -2.8
152.0743 -2.8
152.1058 -2.8
152.1382 -2.8
152.1715 -2.8
152.2026 -2.8
152.2326 -2.8
152.2635 -2.8
152.2958 -2.8
152.3291 -2.8
152.3608 -2.8
152.3908 -2.8
152.4214 -3.05
152.4527 -3.05
152.486 -3.05
152.5152 -3.05
152.5463 -3.05
152.5776 -3.25
152.6089 -3.25
152.6422 -3.25
152.6743 -3.25
152.7044 -3.25
152.7377 -3.25
152.7669 -3.25
152.8002 -3.25
152.831 -3.25
152.8615 -3.25
152.8916 -3.25
152.9222 -3.25
152.9555 -3.25
152.9888 -3.25
153.0221 -3.25
153.0536 -3.25
153.0869 -3.25
153.1203 -3.25
153.1502 -3.25
153.1835 -3.25
153.2168 -3.25
153.2487 -3.25
153.2821 -3.25
153.3154 -3.25
153.3439 -3.25
153.3772 -3.25
153.4069 -3.25
153.4403 -3.25
153.4736 -3.25
153.5043 -3.25
153.5376 -3.25
153.5701 -3.25
153.6034 -3.25
153.6341 -3.25
153.6674 -3.25
153.7007 -3.25
153.7305 -3.25
153.7638 -3.25
153.7943 -3.25
153.8272 -3.25
153.8576 -3.25
153.8909 -3.25
153.9242 -3.25
153.956 -3.25
153.9859 -3.25
154.0167 -3.25
154.049 -3.25
154.0823 -3.25
154.1115 -3.25
154.142 -3.25
154.1747 -3.25
154.2059 -3.25
154.2392 -3.25
154.2726 -3.25
154.3059 -3.25
154.337 -3.25
154.3668 -3.25
154.4001 -3.25
154.4291 -3.25
154.4624 -3.25
154.4913 -3.25
154.5233 -3.25
154.5566 -3.25
154.5896 -3.25
154.6182 -3.25
154.6516 -3.25
154.6806 -3.25
154.714 -3.25
154.7452 -3.25
154.7785 -3.25
154.8086 -3.25
154.8396 -3.25
154.8729 -3.25
154.9059 -3.25
154.9392 -3.25
154.9725 -3.25
155.0059 -3.25
155.0392 -3.25
155.0725 -3.25
155.1059 -3.25
155.1371 -3.25
155.1702 -3.25
155.2035 -3.25
155.2366 -3.25
155.266 -3.25
155.2964 -3.25
155.3268 -3.25
155.3601 -3.25
155.3893 -3.25
155.4193 -3.25
155.448 -3.25
155.4814 -3.25
155.5147 -3.25
155.5464 -3.25
155.5755 -3.25
155.6066 -3.25
155.6379 -3.25
155.6712 -3.25
155.7024 -3.25
155.7357 -3.25
155.7676 -3.25
155.7986 -3.25
155.8319 -3.25
155.8638 -3.25
155.8937 -3.25
155.925 -3.25
155.9584 -3.25
155.9917 -3.25
156.0217 -3.25
156.0551 -3.25
156.0868 -3.25
156.1201 -3.25
156.1535 -3.25
156.183 -3.25
156.2144 -3.25
156.2439 -3.25
156.2735 -3.25
156.3069 -3.25
156.34 -3.25
156.3734 -3.25
156.4055 -3.25
156.4372 -3.25
156.4705 -3.25
156.503 -3.25
156.5334 -3.25
156.5647 -3.25
156.598 -3.25
156.6314 -3.25
156.6616 -3.25
156.6921 -3.25
156.7225 -3.25
156.7545 -3.25
156.7878 -3.25
156.8203 -3.25
156.8503 -3.25
156.8824 -3.25
156.9139 -3.25
156.9472 -3.25
156.9805 -3.25
157.0121 -3.25
157.0432 -3.25
157.0756 -3.25
157.1089 -3.25
157.1388 -3.25
157.1713 -3.25
157.2024 -3.25
157.2357 -3.05
157.269 -3.05
157.2987 -3.05
157.3321 -3.05
157.363 -3.05
157.3931 -3.05
157.4265 -3.05
157.4598 -3.05
157.4931 -3.05
157.5234 -3.05
157.5567 -2.8
157.5901 -2.8
157.6234 -2.8
157.6548 -2.8
157.6882 -2.8
157.719 -2.8
157.7523 -2.8
157.7821 -2.8
157.8108 -2.8
157.8415 -2.8
157.871 -2.8
157.9044 -2.8
157.9353 -2.8
157.9655 -2.8
157.997 -2.8
158.0275 -2.8
158.0609 -2.8
158.0942 -2.6
158.1275 -2.6
158.1586 -2.6
158.19 -2.6
158.2233 -2.4
158.2567 -2.4
158.29 -2.4
158.3227 -2.15
158.356 -2.15
158.3893 -2.15
158.4205 -2.15
158.4532 -2.15
158.4865 -2.15
158.516 -2.15
158.5494 -2.15
158.5791 -2.15
158.6098 -2.15
158.6431 -2.15
158.6741 -2.15
158.7075 -2.15
158.7379 -2.15
158.7684 -2.15
158.8017 -2.15
158.8316 -2.15
158.865 -2.15
158.8939 -2.15
158.9267 -2.15
158.9559 -2.15
158.9892 -2.15
159.0226 -2.15
159.0535 -2.15
159.0868 -2.15
159.1183 -2.15
159.1495 -2.15
159.1829 -2.15
159.2127 -2.15
159.2455 -2.15
159.2769 -2.15
159.31 -2.15
159.3433 -2.15
159.3734 -2.15
159.4068 -2.15
159.4401 -2.15
159.4702 -2.15
159.5035 -2.15
159.5333 -2.15
159.5666 -2.4
159.5981 -2.4
159.6283 -2.4
159.6617 -2.6
159.6923 -2.6
159.7256 -2.6
159.7584 -2.6
159.7877 -2.6
159.8211 -2.6
159.8512 -2.6
159.8846 -2.6
159.9166 -2.6
159.9486 -2.6
159.9819 -2.6
160.0152 -2.6
160.0453 -2.6
160.0787 -2.6
160.112 -2.6
160.1454 -2.6
160.1748 -2.6
160.2081 -2.6
160.2368 -2.6
160.2702 -2.6
160.3035 -2.6
160.3334 -2.6
160.3628 -2.6
160.393 -2.6
160.422 -2.6
160.4553 -2.6
160.4866 -2.6
160.5179 -2.6
160.5499 -2.6
160.5832 -2.6
160.6165 -2.6
160.6499 -2.6
160.6821 -2.6
160.7131 -2.6
160.7465 -2.6
160.7798 -2.6
160.8118 -2.6
160.8422 -2.6
160.8755 -2.6
160.9089 -2.6
160.9422 -2.6
160.9755 -2.6
161.0055 -2.6
161.0368 -2.6
161.067 -2.6
161.1003 -2.6
161.13 -2.6
161.1616 -2.6
161.1949 -2.6
161.2283 -2.6
161.2616 -2.6
161.2913 -2.6
161.3203 -2.6
161.351 -2.6
161.3843 -2.6
161.4176 -2.6
161.451 -2.6
161.4821 -2.6
161.5129 -2.6
161.5462 -2.6
161.5796 -2.6
161.6109 -2.6
161.6413 -2.6
161.6717 -2.6
161.7021 -2.6
161.7354 -2.6
161.7671 -2.6
161.7999 -2.6
161.83 -2.6
161.8608 -2.6
161.8941 -2.6
161.9253 -2.6
161.9552 -2.6
161.9874 -2.6
162.0171 -2.6
162.0504 -2.6
162.0837 -2.6
162.1171 -2.6
162.1471 -2.6
162.1785 -2.6
162.2119 -2.6
162.2452 -2.6
162.2751 -2.6
162.3052 -2.6
162.3343 -2.6
162.3676 -2.6
162.3964 -2.6
162.4269 -2.6
162.4602 -2.6
162.4935 -2.6
162.5269 -2.6
162.5581 -2.6
162.5883 -2.6
162.6188 -2.6
162.6487 -2.6
162.682 -2.6
162.7154 -2.6
162.747 -2.6
162.7803 -2.6
162.8136 -2.6
162.847 -2.6
162.8781 -2.6
162.9075 -2.6
162.9377 -2.6
162.9676 -2.6
163.0009 -2.6
163.0328 -2.6
163.0645 -2.6
163.0963 -2.6
163.1284 -2.6
163.1618 -2.6
163.193 -2.6
163.2218 -2.6
163.2527 -2.6
163.2829 -2.6
163.3162 -2.6
163.3494 -2.6
163.3799 -2.6
163.4093 -2.6
163.4426 -2.6
163.4759 -2.6
163.5079 -2.6
163.5411 -2.6
163.5737 -2.6
163.607 -2.6
163.6403 -2.6
163.6706 -2.6
163.704 -2.6
163.7343 -2.6
163.7676 -2.6
163.8009 -2.6
163.8306 -2.6
163.8601 -2.6
163.8912 -2.6
163.9216 -2.6
163.9549 -2.6
163.9867 -2.6
164.0173 -2.6
164.0494 -2.6
164.0811 -2.6
164.1144 -2.6
164.1474 -2.6
164.1778 -2.6
164.2111 -2.6
164.2409 -2.6
164.2742 -2.6
164.3034 -2.6
164.3358 -2.6
164.3644 -2.6
164.3978 -2.6
164.4311 -2.4
164.4617 -2.4
164.4951 -2.4
164.526 -2.4
164.5593 -2.4
164.5926 -2.4
164.625 -2.4
164.6565 -2.4
164.6865 -2.4
164.7186 -2.4
164.7519 -2.4
164.7837 -2.4
164.8138 -2.4
164.8453 -2.4
164.8768 -2.4
164.9102 -2.4
164.9422 -2.4
164.9755 -2.4
165.008 -2.4
165.0411 -2.4
165.0745 -2.4
165.106 -2.4
165.1363 -2.4
165.169 -2.4
165.2023 -2.4
165.2356 -2.4
165.269 -2.4
165.3009 -2.4
165.3321 -2.4
165.3625 -2.4
165.3959 -2.4
165.4266 -2.4
165.4556 -2.4
165.4889 -2.4
165.5194 -2.4
165.5527 -2.4
165.5849 -2.4
165.6165 -2.4
165.6474 -2.4
165.6798 -2.4
165.7131 -2.4
165.7443 -2.4
165.7753 -2.4
165.8064 -2.4
165.8358 -2.4
165.8691 -2.4
165.9025 -2.4
165.9317 -2.4
165.9641 -2.4
165.9936 -2.4
166.027 -2.4
166.0573 -2.4
166.0882 -2.4
166.1203 -2.4
166.1504 -2.4
166.1838 -2.4
166.2162 -2.4
166.2495 -2.4
166.2805 -2.4
166.3138 -2.4
166.3471 -2.4
166.3777 -2.4
166.4108 -2.4
166.4422 -2.4
166.4732 -2.4
166.5065 -2.4
166.5398 -2.4
166.5708 -2.4
166.5996 -2.4
166.6329 -2.4
166.6663 -2.4
166.6982 -2.4
166.7295 -2.4
166.7628 -2.4
166.793 -2.4
166.8263 -2.4
166.8594 -2.4
166.8909 -2.4
166.9221 -2.4
166.9554 -2.4
166.9888 -2.4
167.021 -2.4
167.0525 -2.4
167.0824 -2.4
167.112 -2.4
167.1453 -2.4
167.1782 -2.4
167.2083 -2.4
167.2388 -2.4
167.2714 -2.4
167.3047 -2.4
167.3359 -2.4
167.3648 -2.4
167.3981 -2.4
167.4314 -2.4
167.4648 -2.4
167.4981 -2.4
167.5298 -2.4
167.5594 -2.4
167.5928 -2.4
167.6261 -2.4
167.6576 -2.4
167.6862 -2.15
167.717 -2.15
167.7464 -1.95
167.7798 -1.7
167.8115 -1.7
167.8448 -1.5
167.8737 -1.3
167.907 -1.3
167.9404 -1.3
167.971 -1.3
168.0044 -1.3
168.0377 -1.3
168.07 -1.3
168.1034 -1.3
168.1367 -1.3
168.1687 -1.3
168.1973 -1.3
168.2292 -1.3
168.2625 -1.3
168.2927 -1.3
168.3217 -1.3
168.355 -1.3
168.3884 -1.3
168.4217 -1.3
168.453 -1.3
168.4864 -1.3
168.5197 -1.3
168.5513 -1.3
168.5847 -1.3
168.618 -1.3
168.6474 -1.3
168.6808 -1.3
168.7106 -1.3
168.7439 -1.3
168.7746 -1.3
168.8052 -1.3
168.8345 -1.3
168.865 -1.3
168.8983 -1.3
168.9316 -1.3
168.9635 -1.3
168.9955 -1.3
169.026 -1.3
169.0594 -1.3
169.0894 -1.3
169.1227 -1.3
169.1551 -1.3
169.1883 -1.3
169.2216 -1.3
169.2537 -1.3
169.2868 -1.3
169.3176 -1.3
169.3483 -1.3
169.3816 -1.3
169.4126 -1.3
169.446 -1.3
169.4761 -1.3
169.5091 -1.3
169.5424 -1.3
169.5757 -1.3
169.6051 -1.3
169.6368 -1.3
169.6658 -1.3
169.6992 -1.3
169.7299 -1.3
169.7607 -1.3
169.7919 -1.3
169.8252 -1.3
169.8585 -1.3
169.8898 -1.3
169.9231 -1.3
169.9538 -1.3
169.9834 -1.3
170.0168 -1.3
170.0466 -1.3
170.0768 -1.3
170.1081 -1.3
170.1414 -1.3
170.1748 -1.3
170.2081 -1.3
170.2389 -1.3
170.2716 -1.3
170.3049 -1.3
170.3382 -1.3
170.3681 -1.3
170.4007 -1.3
170.4298 -1.3
170.4617 -1.3
170.495 -1.3
170.5272 -1.3
170.5605 -1.3
170.5925 -1.3
170.6259 -1.3
170.6592 -1.3
170.6926 -1.3
170.7241 -1.3
170.7548 -1.3
170.7851 -1.3
170.8184 -1.3
170.8485 -1.3
170.8781 -1.3
170.9114 -1.3
170.9439 -1.3
170.9772 -1.3
171.006 -1.3
171.0394 -1.3
171.0708 -1.3
171.1041 -1.3
171.1374 -1.3
171.1687 -1.3
171.2021 -1.3
171.234 -1.3
171.2673 -1.3
171.3006 -1.3
171.3312 -1.3
171.3622 -1.3
171.3913 -1.3
171.4227 -1.3
171.456 -1.3
171.4893 -1.3
171.5192 -1.3
171.5525 -1.3
171.5848 -1.3
171.6181 -1.3
171.6504 -1.3
171.6798 -1.3
171.7092 -1.3
171.7398 -1.3
171.7732 -1.3
171.8065 -1.3
171.8352 -1.3
171.8654 -1.3
171.8946 -1.3
171.9279 -1.3
171.9568 -1.3
171.9901 -1.3
172.0201 -1.3
172.0534 -1.3
172.0867 -1.3
172.1194 -1.3
172.1518 -1.3
172.1833 -1.3
172.2167 -1.3
172.25 -1.3
172.2833 -1.3
172.3167 -1.3
172.3462 -1.3
172.3795 -1.3
172.408 -1.3
172.4392 -1.3
172.4679 -1.3
172.4985 -1.3
172.5319 -1.3
172.5631 -1.3
172.5923 -1.3
172.6256 -1.3
172.6561 -1.3
172.6894 -1.3
172.7227 -1.3
172.7561 -1.3
172.7853 -1.3
172.8168 -1.3
172.8502 -1.3
172.8809 -1.3
172.9122 -1.3
172.9427 -1.3
172.9753 -1.3
173.0087 -1.3
173.0382 -1.3
173.0715 -1.3
173.1004 -1.3
173.1305 -1.3
173.1639 -1.3
173.1972 -1.3
173.2305 -1.3
173.2638 -1.3
173.2952 -1.3
173.3285 -1.3
173.3577 -1.3
173.3911 -1.3
173.4216 -1.3
173.4545 -1.3
173.4879 -1.3
173.5183 -1.3
173.5511 -1.3
173.5816 -1.3
173.6113 -1.3
173.6446 -1.3
173.6761 -1.3
173.709 -1.3
173.7423 -1.3
173.7757 -1.3
173.809 -1.3
173.8395 -1.3
173.8698 -1.3
173.8994 -1.3
173.9287 -1.3
173.962 -1.3
173.9904 -1.3
174.0215 -1.3
174.0513 -1.3
174.0846 -1.3
174.118 -1.3
174.1513 -1.3
174.1819 -1.3
174.2136 -1.3
174.2447 -1.3
174.278 -1.3
174.3107 -1.3
174.3417 -1.3
174.3751 -1.3
174.4084 -1.3
174.4417 -1.3
174.4751 -1.3
174.5041 -1.3
174.5351 -1.05
174.5645 -1.05
174.5978 -1.05
174.6264 -1.05
174.6597 -0.85
174.6891 -0.85
174.7224 -0.85
174.7557 -0.85
174.7874 -0.85
174.8169 -0.85
174.8498 -0.85
174.8807 -0.85
174.914 -0.65
174.945 -0.4
174.9773 -0.4
175.0088 -0.4
175.0401 -0.4
175.0734 -0.4
175.1036 -0.4
175.1326 -0.4
175.1628 -0.4
175.1934 -0.4
175.2267 -0.4
175.2576 -0.4
175.2909 -0.4
175.3204 -0.4
175.3508 -0.4
175.3842 -0.4
175.4175 -0.4
175.4499 -0.4
175.4832 -0.4
175.5134 -0.4
175.5468 -0.4
175.5801 -0.4
175.6109 -0.4
175.6442 -0.4
175.6776 -0.4
175.7109 -0.4
175.7428 -0.4
175.7762 -0.4
175.8063 -0.4
175.8348 -0.4
175.8681 -0.4
175.8993 -0.4
175.9326 -0.4
175.9611 -0.4
175.9944 -0.4
176.0277 -0.4
176.0611 -0.4
176.0944 -0.4
176.1273 -0.4
176.1607 -0.4
176.194 -0.4
176.2273 -0.4
176.2588 -0.4
176.2889 -0.4
176.3222 -0.4
176.3555 -0.4
176.3889 -0.4
176.4214 -0.4
176.4515 -0.4
176.4848 -0.4
176.5182 -0.4
176.5515 -0.4
176.5846 -0.4
176.6138 -0.4
176.6458 -0.4
176.6791 -0.4
176.7093 -0.4
176.7402 -0.4
176.772 -0.4
176.8019 -0.4
176.8352 -0.4
176.8644 -0.4
176.8946 -0.4
176.9279 -0.4
176.9612 -0.4
176.9946 -0.4
177.025 -0.4
177.0584 -0.4
177.0917 -0.4
177.1233 -0.4
177.1567 -0.4
177.1882 -0.2
177.2216 -0.2
177.2509 -0.2
177.2842 0.2
177.3175 0.2
177.3479 0.2
177.3801 0.2
177.4134 0.2
177.4428 0.2
177.4762 0.2
177.5049 0.2
177.5354 0.2
177.5653 0.2
177.5955 0.2
177.6289 0.2
177.6622 0.2
177.6923 0.2
177.725 0.2
177.7568 0.2
177.7901 0.2
177.8187 0.2
177.8521 0.2
177.8849 0.2
177.9181 0.2
177.9514 0.2
177.9848 0.2
178.014 0.2
178.0458 0.2
178.0791 0.2
178.1125 0.2
178.1426 0.2
178.1728 0.2
178.2061 0.2
178.2395 0.2
178.2728 0.2
178.3038 0.2
178.3323 0.2
178.3623 0.2
178.3952 0.2
178.4285 0.2
178.4572 0.2
178.4879 0
178.5212 0
178.5546 0
178.5879 0
178.6196 0
178.6491 0
178.6813 0
178.7112 0
178.7445 0
178.774 0
178.8074 0
178.8368 0
178.8676 0
178.9009 0
178.9342 0
178.9637 0
178.9943 0
179.0241 0
179.0575 0
179.0881 0
179.1195 0
179.1491 0
179.1802 0
179.2135 0
179.2468 0
179.2802 0
179.3117 0
179.3408 0
179.3741 0
179.4027 0
179.4323 0
179.4618 0
179.4949 0
179.5283 0
179.5587 0
179.5886 0
179.6219 0
179.6512 0
179.6845 0
179.7137 0
179.7439 0.4
179.7736 0.65
179.8047 0.65
179.8381 0.65
179.8709 0.85
179.9027 0.85
179.9361 0.85
179.9654 0.85
179.9987 0.85
180.0298 0.85
180.0602 0.85
180.0901 0.85
180.1208 0.85
180.1541 0.85
180.1875 0.85
180.2208 0.85
180.2541 0.85
180.2857 0.85
180.319 0.85
180.3484 0.85
180.3784 0.85
180.4103 0.85
180.4437 0.85
180.477 0.85
180.5082 0.85
180.5415 0.85
180.5718 0.85
180.6007 0.85
180.634 0.85
180.6635 0.85
180.6968 0.85
180.7302 0.85
180.7603 0.85
180.7937 0.85
180.8263 0.85
180.856 0.85
180.8867 0.85
180.92 0.85
180.9533 0.85
180.9825 0.85
181.0138 0.85
181.0471 0.85
181.0789 0.85
181.1122 0.85
181.142 0.85
181.1731 0.85
181.203 0.85
181.2329 0.85
181.2662 0.65
181.2995 0.65
181.3297 0.65
181.3625 0.65
181.3953 0.65
181.4286 0.65
181.4595 0.65
181.4892 0.65
181.5226 0.65
181.552 0.65
181.5854 0.65
181.6176 0.65
181.648 0.65
181.6794 0.65
181.7115 0.65
181.7449 0.65
181.7782 0.65
181.8115 0.65
181.8431 0.65
181.8733 0.65
181.9066 0.65
181.9369 0.65
181.9702 0.65
182.0007 0.65
182.0307 0.65
182.0641 0.65
182.0974 0.65
182.1268 0.65
182.1601 0.65
182.1896 0.65
182.223 0.65
182.2538 0.65
182.2864 0.65
182.315 0.65
182.3483 0.65
182.3817 0.65
182.415 0.65
182.4481 0.65
182.4788 0.65
182.5077 0.65
182.541 0.65
182.5717 0.65
182.6022 0.65
182.6332 0.65
182.6665 0.65
182.6999 0.65
182.733 0.65
182.7664 0.65
182.7997 0.65
182.8303 0.65
182.8637 0.65
182.897 0.65
182.9282 0.65
182.9597 0.65
182.9913 0.65
183.0247 0.65
183.058 0.65
183.0867 0.65
183.1174 0.65
183.1475 0.65
183.1808 0.65
183.2102 0.65
183.2429 0.65
183.2714 0.65
183.3048 0.65
183.3381 0.65
183.3714 0.65
183.4015 0.85
183.434 0.85
183.4645 0.85
183.4978 0.85
183.5299 0.85
183.5599 0.85
183.5891 0.85
183.6198 0.85
183.6531 0.85
183.6849 0.85
183.7142 0.85
183.7475 0.85
183.7806 0.85
183.8139 0.85
183.843 0.85
183.8763 0.85
183.9097 0.85
183.9419 0.85
183.9753 0.85
184.0079 0.85
184.0412 0.85
184.0731 0.85
184.1049 0.85
184.1382 1.05
184.1676 1.05
184.1996 1.05
184.2329 1.05
184.2641 1.05
184.2974 1.05
184.3307 1.05
184.3607 1.05
184.3936 1.05
184.4244 1.05
184.4577 1.05
184.4867 1.05
184.5201 1.05
184.5524 1.05
184.5857 1.05
184.619 1.05
184.6497 1.05
184.6805 1.05
184.7135 1.05
184.7429 1.05
184.7762 1.05
184.8088 1.05
184.8397 1.05
184.8705 1.3
184.9028 1.5
184.9362 1.5
184.9695 1.5
184.9993 1.5
185.0298 1.5
185.0595 1.5
185.0928 1.5
185.1217 1.5
185.1551 1.5
185.1876 1.5
185.2179 1.5
185.2512 1.5
185.2809 1.5
185.3142 1.5
185.3458 1.5
185.3778 1.5
185.4112 1.5
185.4414 1.5
185.4736 1.3
185.5024 1.3
185.5358 1.3
185.5691 1.3
185.6024 1.3
185.6323 1.05
185.6623 1.05
185.6925 1.05
185.7259 1.05
185.7592 1.05
185.7925 1.05
185.8242 1.05
185.8575 1.05
185.8908 1.05
185.921 1.05
185.95 1.05
185.9803 1.05
186.0135 1.05
186.0469 1.05
186.0794 1.05
186.1103 1.05
186.1406 1.3
186.1735 1.3
186.2069 1.3
186.2389 1.5
186.2723 1.5
186.305 1.5
186.3383 1.5
186.3717 1.5
186.405 1.5
186.4383 1.5
186.4673 1.5
186.5006 1.5
186.534 1.5
186.5639 1.5
186.5965 1.5
186.6263 1.5
186.6558 1.5
186.6891 1.5
186.7186 1.5
186.752 1.5
186.7819 1.5
186.8146 1.7
186.848 1.7
186.8805 1.7
186.91 1.95
186.9434 1.95
186.9742 1.95
187.0075 1.95
187.0385 1.95
187.0719 1.95
187.105 2.15
187.1384 2.15
187.1717 2.15
187.2019 2.15
187.2352 2.15
187.2679 2.4
187.3004 2.4
187.3337 2.4
187.3671 2.4
187.4004 2.4
187.4312 2.4
187.4645 2.4
187.4978 2.4
187.5312 2.4
187.5631 2.4
187.5936 2.4
187.625 2.4
187.6583 2.4
187.6875 2.4
187.7198 2.4
187.7486 2.4
187.782 2.4
187.8153 2.6
187.8459 2.6
187.8751 2.6
187.9061 2.6
187.938 2.6
187.9713 2.6
188.004 2.6
188.0371 2.6
188.0704 2.6
188.1022 2.6
188.1355 2.6
188.1655 2.6
188.1945 2.6
188.2278 2.6
188.2596 2.6
188.2929 2.6
188.3263 2.6
188.3596 2.6
188.3913 2.6
188.4224 2.6
188.4557 2.6
188.4871 2.6
188.5179 2.6
188.55 2.6
188.5814 2.6
188.6147 2.6
188.6451 2.6
188.6774 2.6
188.7104 2.6
188.742 2.6
188.7753 2.6
188.8081 2.6
188.8381 2.6
188.8678 2.6
188.8973 2.6
188.9306 2.6
188.964 2.6
188.9973 2.6
189.0303 2.6
189.0614 2.6
189.0948 2.6
189.1257 2.6
189.1575 2.6
189.1899 2.6
189.2188 2.6
189.2521 2.6
189.2811 2.6
189.311 2.6
189.3428 2.6
189.3734 2.6
189.4067 2.6
189.4375 2.6
189.47 2.6
189.501 2.6
189.5343 2.6
189.5677 2.6
189.601 2.6
189.6344 2.6
189.6662 2.6
189.6969 2.6
189.7303 2.6
189.7608 2.6
189.7903 2.6
189.8229 2.6
189.8528 2.6
189.8861 2.6
189.9154 2.6
189.9466 2.6
189.976 2.6
190.0074 2.6
190.0407 2.6
190.0717 2.6
190.1023 2.6
190.1348 2.6
190.1681 2.6
190.2015 2.6
190.2332 2.6
190.2633 2.6
190.2941 2.6
190.3246 2.6
190.3579 2.6
190.3903 2.6
190.4204 2.6
190.4532 2.6
190.4865 2.4
190.5199 2.4
190.5532 2.4
190.5836 2.4
190.6169 2.4
190.6483 2.4
190.6816 2.4
190.7122 2.15
190.7416 2.15
190.775 2.15
190.8069 2.15
190.8402 2.15
190.8698 2.15
190.9031 2.15
190.9332 2.15
190.9656 2.15
190.999 2.15
191.03 2.15
191.0607 2.15
191.0906 2.15
191.121 2.15
191.1544 2.15
191.183 2.15
191.2132 2.15
191.2418 2.15
191.2749 2.15
191.3082 2.15
191.34 2.15
191.371 2.15
191.4017 2.15
191.4334 2.15
191.4667 2.15
191.5 2.15
191.5305 2.15
191.561 2.15
191.5925 2.15
191.6258 2.15
191.6564 2.15
191.6874 2.15
191.7199 2.15
191.7533 2.15
191.7866 2.15
191.8157 2.15
191.8468 2.15
191.8801 2.15
191.9122 2.15
191.9456 2.15
191.9763 2.15
192.009 2.15
192.041 2.15
192.0708 2.15
192.1042 2.15
192.1339 2.15
192.165 2.15
192.1937 2.15
192.2241 2.15
192.2574 1.95
192.288 1.7
192.3213 1.7
192.3547 1.3
192.3857 0.85
192.419 0.85
192.4523 0.65
192.4839 0.65
192.5134 0.65
192.5437 0.85
192.577 0.85
192.6104 0.85
192.6426 0.85
192.6742 0.85
192.7076 0.85
192.7409 0.85
192.7702 0.85
192.8036 0.85
192.8369 0.85
192.8671 0.85
192.9004 0.85
192.9314 0.85
192.9615 0.85
192.9921 0.85
193.0242 0.85
193.0575 0.85
193.0889 0.85
193.1222 1.05
193.1555 1.3
193.1889 1.5
193.2222 1.5
193.2534 1.5
193.2867 1.7
193.32 1.7
193.3523 1.7
193.3857 1.7
193.4157 1.7
193.4482 1.7
193.4794 1.7
193.5115 1.7
193.5448 1.7
193.5759 1.7
193.605 1.7
193.635 1.7
193.6644 1.7
193.6977 1.95
193.7292 1.95
193.7626 1.95
193.7926 1.95
193.8251 1.95
193.8585 1.95
193.8918 1.95
193.9237 1.95
193.9538 1.95
193.9831 1.95
194.0164 1.95
194.0497 1.95
194.0824 1.95
194.1148 1.95
194.1481 1.95
194.1814 1.95
194.2121 1.95
194.2446 1.95
194.2778 1.95
194.3074 1.95
194.3408 1.95
194.3727 1.95
194.406 1.95
194.4393 1.95
194.4725 1.95
194.5058 1.95
194.5391 1.95
194.5719 1.95
194.6032 1.95
194.6342 1.95
194.6675 1.95
194.6963 1.95
194.7269 1.95
194.7564 1.95
194.7882 1.95
194.8215 1.95
194.8549 1.95
194.8882 1.95
194.9191 1.95
194.9525 1.95
194.9858 1.95
195.0181 1.95
195.0506 1.95
195.0811 1.95
195.1144 1.95
195.1477 1.95
195.1811 1.95
195.2144 1.95
195.2477 1.95
195.2781 1.95
195.3114 1.95
195.34 1.95
195.3729 1.95
195.4028 1.95
195.4361 1.95
195.4695 1.95
195.5017 1.95
195.5336 1.95
195.5669 1.95
195.5993 1.95
195.6326 1.95
195.6617 1.95
195.695 1.95
195.7263 1.95
195.7564 1.95
195.7897 1.95
195.82 2.4
195.8498 2.4
195.8807 2.6
195.9104 2.6
195.9437 3.05
195.9762 3.05
196.0074 3.05
196.0365 3.05
196.0696 3.05
196.1029 3.05
196.1329 3.05
196.1662 3.05
196.1962 3.05
196.2256 3.05
196.2589 3.05
196.2879 3.05
196.3206 3.05
196.3539 3.05
196.3858 3.05
196.4191 3.05
196.4511 3.05
196.4845 3.05
196.5146 3.05
196.5457 3.05
196.5791 3.05
196.6089 3.05
196.6387 3.05
196.6687 3.05
196.6991 3.05
196.7325 3.05
196.7629 3.05
196.7963 3.05
196.8296 3.05
196.862 3.05
196.8953 3.05
196.9277 3.05
196.9611 3.05
196.9928 3.05
197.0237 3.05
197.057 3.05
197.0884 3.05
197.1173 3.05
197.1472 3.05
197.177 3.05
197.2104 3.05
197.243 3.05
197.2741 3.05
197.307 3.05
197.3403 3.05
197.3736 3.05
197.407 3.05
197.4403 3.05
197.4698 3.05
197.4991 3.05
197.5325 3.05
197.5658 3.05
197.5966 3.05
197.6297 3.05
197.663 3.05
197.6963 3.05
197.7292 3.05
197.7625 3.05
197.7934 3.05
197.8268 3.05
197.8601 3.05
197.8934 3.05
197.9256 3.05
197.9559 3.05
197.9876 3.05
198.0209 3.05
198.0542 3.05
198.0876 3.05
198.1209 3.05
198.1542 3.05
198.1876 3.05
198.2209 3.05
198.2542 3.05
198.2847 3.05
198.318 3.05
198.3513 3.05
198.3847 3.05
198.418 3.05
198.4512 3.05
198.4845 3.05
198.5179 3.05
198.5467 3.05
198.5774 3.05
198.6069 3.05
198.6402 3.05
198.6736 3.05
198.7055 3.05
198.7389 3.05
198.7722 3.05
198.8055 3.05
198.8389 3.05
198.8701 3.05
198.9015 3.05
198.9299 3.05
198.962 3.05
198.9953 3.05
199.0262 3.05
199.0581 3.05
199.0893 3.05
199.1195 3.05
199.1529 3.05
199.1845 3.05
199.2148 3.05
199.2445 3.05
199.2751 3.05
199.3084 3.05
199.3397 3.05
199.3688 3.05
199.4018 3.05
199.4322 3.05
199.4655 3.05
199.4988 3.05
199.5322 3.05
199.5609 3.05
199.5915 3.05
199.6249 3.05
199.6575 3.05
199.6879 3.05
199.718 3.25
199.7513 3.25
199.7846 3.25
199.8139 3.25
199.8439 3.25
199.8768 3.25
199.9102 3.25
199.9435 3.25
199.9762 3.25
200.0093 3.25
200.0419 3.25
200.0752 3.25
200.1085 3.25
200.14 3.25
200.1733 3.25
200.2066 3.25
200.24 3.25
200.2733 3.25
200.3066 3.25
200.34 3.45
200.3733 3.7
200.4066 3.7
200.44 3.7
200.473 3.9
200.5063 3.9
200.5391 3.9
200.5724 3.9
200.6058 3.9
200.6391 3.9
200.6724 3.9
200.7058 3.9
200.7391 4.15
200.7711 4.15
200.8019 4.15
200.8342 4.15
200.8629 4.15
200.8962 4.15
200.9255 4.15
200.9564 4.15
200.9892 4.15
201.021 4.15
201.0543 4.15
201.0876 4.15
201.1172 4.15
201.1476 4.15
201.1779 4.15
201.2112 4.15
201.2412 4.15
201.2745 4.15
201.3062 4.15
201.3395 4.15
201.3728 4.15
201.4046 4.15
201.4379 4.15
201.4694 4.15
201.4994 4.15
201.5327 4.15
201.562 4.15
201.5953 4.15
201.6247 4.15
201.6581 4.15
201.6914 4.15
201.7246 4.15
201.7561 4.15
201.7895 4.15
201.8228 4.15
201.8561 4.15
201.8859 4.15
201.9193 4.15
201.9494 4.15
201.9828 4.15
202.0161 4.15
202.0462 4.15
202.0782 4.15
202.1115 4.15
202.143 4.15
202.1763 4.15
202.2084 4.15
202.2414 4.15
202.271 4.15
202.3017 4.15
202.3351 4.15
202.3684 4.15
202.3972 4.15
202.4283 4.15
202.458 4.15
202.4913 4.15
202.52 4.15
202.5521 4.15
202.5854 4.15
202.6188 4.15
202.6521 4.15
202.6836 4.15
202.7151 4.15
202.7484 4.15
202.7803 4.15
202.8136 4.15
202.842 4.15
202.8731 4.15
202.9019 4.35
202.9335 4.35
202.9668 4.35
202.9977 4.35
203.0282 4.35
203.0587 4.35
203.0907 4.35
203.124 4.35
203.1526 4.35
203.1832 4.35
203.2128 4.35
203.2438 4.35
203.2771 4.35
203.3094 4.35
203.3405 4.35
203.3712 4.35
203.4037 4.35
203.437 4.35
203.4666 4.35
203.497 4.35
203.527 4.35
203.5575 4.35
203.5909 4.35
203.6242 4.35
203.6525 4.35
203.6858 4.35
203.7168 4.35
203.7502 4.35
203.7817 4.35
203.8151 4.15
203.8469 4.15
203.8786 4.15
203.9119 3.9
203.9417 3.9
203.9751 3.9
204.0078 3.7
204.0408 3.7
204.0742 3.45
204.1075 3.25
204.138 3.25
204.1702 3.05
204.2023 3.05
204.2357 3.05
204.2671 2.8
204.2962 2.8
204.3267 2.8
204.356 2.8
204.3893 2.8
204.4193 2.8
204.4516 2.8
204.4819 2.8
204.5153 2.8
204.5486 2.8
204.5798 2.8
204.613 2.8
204.643 3.05
204.673 3.05
204.7063 3.05
204.7396 3.05
204.7698 3.05
204.7996 3.05
204.8306 3.05
204.864 3.05
204.8938 3.05
204.9271 3.05
204.9579 3.05
204.9912 3.05
205.0246 3.05
205.0561 3.05
205.0875 3.05
205.1173 3.05
205.1494 3.05
205.1827 3.05
205.214 3.05
205.2426 3.05
205.276 3.05
205.3063 3.05
205.3396 3.05
205.3682 3.05
205.3983 3.05
205.4269 3.05
205.4602 3.05
205.4936 3.05
205.5231 3.05
205.5514 3.05
205.584 3.05
205.6167 3.05
205.6501 2.8
205.6804 2.8
205.7138 2.6
205.7471 2.6
205.7804 2.6
205.8138 2.4
205.8445 2.4
205.8764 2.4
205.907 2.4
205.9368 2.4
205.9701 2.4
205.9994 2.4
206.0293 2.4
206.0619 2.15
206.0932 1.95
206.1265 1.95
206.1566 1.95
206.19 1.95
206.2233 1.95
206.2567 1.95
206.29 1.95
206.3191 1.95
206.3524 1.95
206.3837 1.95
206.4171 1.95
206.4467 1.95
206.4771 1.95
206.5075 1.95
206.5385 1.95
206.5718 1.95
206.6036 1.95
206.6332 1.95
206.6655 2.15
206.6947 2.15
206.7281 2.15
206.7601 2.15
206.7934 2.15
206.8267 2.15
206.8588 2.15
206.8922 2.15
206.9234 2.15
206.9554 2.15
206.9856 2.15
207.0155 2.15
207.0488 2.15
207.0777 2.15
207.111 2.15
207.1401 2.15
207.1719 2.15
207.2052 2.15
207.2385 2.15
207.2673 2.15
207.299 2.15
207.329 2.15
207.3623 2.15
207.3909 2.15
207.4242 2.15
207.4529 2.15
207.4844 2.15
207.5177 2.15
207.5478 2.15
207.5772 2.15
207.6078 2.15
207.6412 2.15
207.6745 2.15
207.7039 2.15
207.7367 2.15
207.7671 2.15
207.7998 2.15
207.8332 2.15
207.866 2.15
207.8972 2.15
207.9302 2.15
207.9619 2.15
207.9953 2.15
208.0286 2.15
208.0598 2.15
208.089 2.15
208.1223 2.15
208.1557 2.15
208.189 2.15
208.2189 2.15
208.2517 2.15
208.2825 2.15
208.3158 2.15
208.3473 2.15
208.3777 2.15
208.4088 2.15
208.4405 2.15
208.4738 2.15
208.5067 2.15
208.5372 2.15
208.569 2.15
208.6023 2.15
208.6357 2.15
208.6641 2.15
208.6974 2.15
208.7304 2.15
208.7614 2.15
208.7947 2.15
208.828 2.15
208.8586 2.15
208.8896 2.15
208.9229 2.15
208.9562 2.15
208.9896 2.15
209.0229 2.15
209.0535 2.15
209.0838 2.15
209.1171 2.15
209.1494 2.15
209.1796 2.15
209.2115 2.15
209.2421 2.15
209.2755 2.15
209.3068 2.15
209.3394 2.15
209.3689 2.15
209.4003 2.15
209.4337 2.15
209.467 2.15
209.4964 2.15
209.5272 2.15
209.5586 2.15
209.5919 2.15
209.6252 2.15
209.6551 2.15
209.6858 2.15
209.716 2.15
209.7493 2.15
209.7817 2.15
209.8117 2.15
209.8424 2.15
209.8745 2.15
209.9078 2.15
209.9374 2.15
209.9685 2.15
210.0019 2.15
210.0325 2.15
210.0658 2.15
210.0992 2.15
210.1325 2.15
210.1658 2.15
210.1992 2.15
210.2325 2.15
210.2616 2.15
210.2931 2.15
210.3255 2.15
210.3557 2.15
210.389 2.15
210.4224 2.15
210.4557 2.15
210.4871 2.15
210.5187 2.15
210.5521 2.15
210.5815 2.15
210.6119 2.15
210.6413 2.15
210.672 2.15
210.7053 2.15
210.7386 2.15
210.772 2.15
210.802 2.15
210.8326 2.15
210.866 2.15
210.8959 2.15
210.9292 2.15
210.9605 2.15
210.9939 2.15
211.0272 2.15
211.0605 2.15
211.0916 2.15
211.1212 2.15
211.1512 2.15
211.1845 2.15
211.214 2.15
211.2444 2.15
211.2774 2.15
211.3088 2.15
211.3422 2.15
211.3736 2.15
211.406 2.15
211.4393 2.15
211.4727 2.15
211.506 2.15
211.5393 2.15
211.5719 2.15
211.6052 2.15
211.6357 2.15
211.669 2.15
211.7001 2.15
211.7296 2.15
211.7612 2.15
211.794 2.15
211.8274 2.15
211.8572 2.15
211.8887 2.15
211.9193 2.15
211.9521 2.15
211.9855 2.15
212.0188 2.15
212.0499 2.15
212.08 2.15
212.1134 2.15
212.1467 2.15
212.1784 2.15
212.2086 2.15
212.2376 2.15
212.2688 2.15
212.3022 2.15
212.3335 2.15
212.3629 2.15
212.3938 2.15
212.427 2.15
212.4604 2.15
212.4908 2.15
212.5218 2.15
212.5519 2.15
212.5838 2.15
212.6171 2.15
212.6505 2.15
212.6807 2.15
212.7106 2.15
212.741 2.15
212.7744 2.15
212.8055 2.15
212.8362 2.15
212.8652 2.15
212.8953 2.15
212.9286 2.15
212.9587 2.15
212.9886 2.15
213.0215 2.15
213.0548 2.15
213.0881 2.15
213.1177 2.15
213.1487 2.15
213.1773 2.15
213.2078 2.15
213.2411 2.15
213.2744 2.15
213.3037 2.15
213.3339 2.15
213.3673 2.15
213.4006 2.15
213.4339 2.15
213.4653 2.15
213.4945 2.15
213.526 2.15
213.5593 2.15
213.5908 2.15
213.6221 2.15
213.6554 2.15
213.6887 2.15
213.7221 2.15
213.7518 2.15
213.7844 2.15
213.816 2.15
213.8493 2.15
213.8826 2.15
213.9148 2.15
213.9433 2.15
213.9729 2.15
214.0062 2.15
214.0395 2.15
214.0703 2.15
214.1023 2.15
214.1355 2.15
214.1688 2.15
214.2022 2.15
214.2351 2.15
214.2684 2.15
214.3017 2.15
214.3307 2.15
214.364 2.15
214.3973 2.15
214.4295 2.15
214.4581 2.15
214.4915 2.15
214.5248 2.15
214.5581 2.15
214.5915 2.15
214.6229 2.15
214.6519 2.15
214.6852 2.15
214.717 2.15
214.7503 2.15
214.7822 2.15
214.8155 1.95
214.8488 1.95
214.8799 1.95
214.9102 1.7
214.9436 1.7
214.9725 1.7
215.0058 1.7
215.035 1.7
215.0684 1.7
215.1007 1.7
215.134 1.7
215.1674 1.7
215.2007 1.7
215.234 1.7
215.2674 1.7
215.3007 1.7
215.334 1.7
215.3674 1.7
215.4001 1.7
215.4312 1.7
215.4646 1.7
215.4979 1.7
215.5313 1.7
215.5637 1.7
215.5971 1.5
215.629 1.3
215.6624 1.05
215.6957 0.85
215.729 0.85
215.7624 0.85
215.7957 0.85
215.8249 0.85
215.8583 0.85
215.8887 0.85
215.9203 0.85
215.9517 0.85
215.985 0.85
216.0183 0.85
216.0517 0.85
216.0815 0.85
216.1121 0.85
216.1409 0.85
216.1743 0.85
216.2076 0.85
216.241 0.85
216.2738 0.85
216.3071 0.85
216.3405 0.85
216.3704 0.85
216.4038 0.85
216.435 0.85
216.4641 0.85
216.4974 0.85
216.5261 0.85
216.5561 0.85
216.5894 0.85
216.6209 0.85
216.6542 0.85
216.6855 0.85
216.7169 0.85
216.7482 0.85
216.7778 0.85
216.8111 0.85
216.8404 0.85
216.871 0.85
216.8994 0.85
216.9298 0.85
216.9631 0.85
216.9963 0.85
217.0291 0.85
217.0589 0.85
217.0886 0.85
217.1219 0.85
217.1552 0.85
217.1862 0.85
217.2167 0.85
217.2494 0.85
217.2828 0.85
217.3142 0.85
217.343 0.85
217.373 0.85
217.4017 0.85
217.435 0.85
217.4641 0.85
217.4945 0.85
217.5236 0.85
217.5535 0.85
217.5868 0.85
217.6172 0.85
217.6455 0.85
217.6752 0.85
217.7064 0.85
217.7398 0.85
217.7691 0.85
217.8024 0.85
217.8357 0.85
217.867 0.85
217.9004 0.85
217.9337 0.85
217.967 0.85
218.0004 0.85
218.0289 0.85
218.0622 0.85
218.0951 0.85
218.1284 0.85
218.1617 0.85
218.1927 0.85
218.2261 0.85
218.2571 0.85
218.2863 0.85
218.3196 0.85
218.3497 0.85
218.383 0.85
218.414 0.85
218.4468 0.85
218.4762 1.05
218.5096 1.05
218.5429 1.05
218.5762 1.05
218.6055 1.05
218.6389 1.05
218.6692 1.05
218.7025 1.05
218.7315 1.05
218.762 1.05
218.7934 1.05
218.8267 1.05
218.8601 1.05
218.8911 1.05
218.921 1.05
218.9522 1.05
218.9852 1.05
219.0185 1.05
219.0513 1.05
219.0811 1.05
219.1123 1.05
219.1456 1.05
219.1789 1.05
219.2079 1.05
219.2366 1.05
219.2681 1.05
219.3014 1.05
219.3347 1.05
219.3664 1.05
219.3997 1.05
219.4331 1.05
219.4664 1.05
219.4997 1.05
219.5331 1.05
219.5664 1.05
219.5997 1.05
219.6291 1.05
219.6624 1.05
219.6913 1.05
219.7246 1.05
219.7532 1.05
219.7852 1.05
219.8185 1.05
219.8479 1.05
219.8783 1.05
219.9099 1.05
219.9432 1.05
219.9765 1.05
220.0097 1.05
220.043 1.05
220.0722 1.05
220.103 1.05
220.1363 1.05
220.1666 1.05
220.1947 1.05
220.225 1.05
220.2545 1.05
220.2878 1.05
220.3189 1.05
220.3505 1.05
220.3838 1.05
220.4159 1.05
220.4492 1.05
220.4788 1.05
220.51 1.05
220.5402 1.05
220.5694 1.05
220.6027 1.05
220.636 1.05
220.6694 1.05
220.7027 1.05
220.7341 1.05
220.7675 1.05
220.7978 1.05
220.8284 1.05
220.8585 1.05
220.8918 1.05
220.9252 1.05
220.9557 0.85
220.9891 0.85
221.0224 0.85
221.0557 0.65
221.0891 0.65
221.1224 0.65
221.154 0.4
221.1864 0.4
221.2154 0.4
221.2487 0.4
221.2782 0.4
221.3104 0.4
221.3388 0.4
221.3688 0.4
221.4022 0.4
221.432 0.4
221.4653 0.4
221.4973 0.4
221.5306 0.4
221.564 0.4
221.5933 0.4
221.6226 0.4
221.6517 0.4
221.6823 0.4
221.7157 0.4
221.7481 0.4
221.777 0.4
221.8072 0.4
221.8388 0.4
221.8722 0.4
221.903 0.4
221.9354 0.4
221.9688 0.4
221.9988 0.4
222.0322 0.4
222.0641 0.4
222.096 0.4
222.1293 0.4
222.162 0.4
222.1953 0.4
222.2244 0.4
222.2553 0.4
222.2886 0.4
222.3219 0.4
222.3553 0.4
222.3851 0.4
222.4184 0.4
222.4518 0.4
222.4801 0.4
222.5134 0.4
222.543 0.4
222.5746 0.4
222.603 0.4
222.634 0.4
222.6673 0.4
222.698 0.4
222.7277 0.4
222.7579 0.4
222.7876 0.4
222.821 0.4
222.8509 0.4
222.8843 0.4
222.9176 0.4
222.9478 0.4
222.9811 0.4
223.014 0.4
223.0448 0.4
223.076 0.4
223.106 0.4
223.1393 0.4
223.1678 0.4
223.1973 0.4
223.2301 0.4
223.2616 0.4
223.2949 0.4
223.3272 0.4
223.3605 0.4
223.3938 0.4
223.4242 0.4
223.4576 0.4
223.4882 0.4
223.5208 0.4
223.5541 0.4
223.5874 0.4
223.6208 0.4
223.6518 0.4
223.6823 0.4
223.7133 0.4
223.7433 0.4
223.7767 0.4
223.8058 0.4
223.8383 0.4
223.8688 0.4
223.9021 0.4
223.9354 0.4
223.965 0.4
223.9942 0.4
224.0247 0.4
224.0538 0.4
224.0872 0.4
224.1163 0.4
224.1497 0.4
224.1785 0.4
224.2119 0.4
224.2452 0.4
224.2772 0.4
224.3067 0.4
224.3373 0.4
224.3706 0.4
224.404 0.4
224.4373 0.4
224.4682 0.4
224.5002 0.4
224.5311 0.4
224.5644 0.4
224.5978 0.4
224.6268 0.4
224.6602 0.4
224.6921 0.4
224.7255 0.4
224.757 0.4
224.7893 0.4
224.8182 0.4
224.849 0.4
224.8823 0.4
224.9127 0.4
224.9425 0.4
224.9758 0.4
225.009 0.4
225.0424 0.4
225.0712 0.4
225.1013 0.4
225.1338 0.4
225.1645 0.4
225.1979 0.4
225.2302 0.4
225.2631 0.4
225.293 0.4
225.3236 0.4
225.357 0.4
225.3864 0.4
225.4161 0.4
225.4448 0.4
225.475 0.4
225.5084 0.4
225.5382 0.4
225.5669 0.4
225.5978 0.4
225.6311 0.4
225.6644 0.4
225.6937 0.4
225.7234 0.4
225.7521 0.4
225.7828 0.4
225.8161 0.4
225.8494 0.4
225.8805 0.4
225.9138 0.4
225.9461 0.4
225.9794 0.4
226.0082 0.4
226.0382 0.4
226.0682 0.4
226.0978 0.4
226.1311 0.4
226.1615 0.4
226.1929 0.4
226.2251 0.4
226.2584 0.4
226.2918 0.4
226.3236 0.4
226.3569 0.4
226.3882 0.4
226.4195 0.4
226.4528 0.4
226.4862 0.4
226.5142 0.4
226.5461 0.4
226.5794 0.4
226.6127 0.4
226.6419 0.4
226.6728 0.4
226.7054 0.4
226.7366 0.4
226.7699 0.4
226.8033 0.4
226.8322 0.4
226.862 0.4
226.8953 0.4
226.9287 0.4
226.9565 0.4
226.9898 0.4
227.0185 0.4
227.0493 0.4
227.0827 0.4
227.1148 0.4
227.1482 0.4
227.1806 0.4
227.2095 0.4
227.2428 0.4
227.2721 0.4
227.3024 0.4
227.3357 0.4
227.3659 0.4
227.3993 0.4
227.4303 0.4
227.463 0.4
227.4929 0.4
227.5262 0.4
227.5595 0.4
227.5907 0.4
227.624 0.65
227.6546 0.65
227.6869 0.65
227.7203 0.85
227.7534 0.85
227.7848 0.85
227.8161 0.85
227.8477 0.85
227.881 0.85
227.9144 0.85
227.9442 0.85
227.9775 0.85
228.0087 1.05
228.042 1.05
228.0732 1.05
228.1039 1.5
228.1337 1.5
228.1628 1.7
228.1961 1.7
228.2247 1.95
228.2581 1.95
228.2912 1.95
228.3246 1.95
228.3579 1.95
228.3889 1.95
228.4178 1.95
228.4511 1.95
228.4797 1.95
228.5131 1.95
228.5415 1.95
228.5734 1.95
228.6023 1.95
228.6336 1.95
228.6669 1.95
228.6978 1.95
228.728 1.7
228.7585 1.7
228.7891 1.7
228.8224 1.5
228.8513 1.5
228.8846 1.3
228.918 1.3
228.9503 1.3
228.9836 1.3
229.0169 1.3
229.046 1.3
229.0765 1.3
229.1066 1.3
229.1399 1.3
229.1691 1.3
229.2012 1.3
229.2309 1.3
229.2607 1.3
229.2941 1.3
229.3264 1.3
229.3574 1.3
229.3907 1.3
229.4205 1.3
229.4539 1.3
229.4822 1.3
229.5127 1.3
229.5408 1.3
229.5741 1.5
229.6075 2.4
229.6394 2.4
229.6689 3.25
229.6988 4.35
229.7294 4.35
229.7627 5
229.7931 5
229.8264 5.2
229.8545 5.2
229.8854 5.2
229.9187 5.2
229.9504 5.2
229.9803 5.2
230.0104 5.2
230.0406 5.2
230.0739 5.2
230.105 5.2
230.1383 5.2
230.1676 5.2
230.2009 5.2
230.2342 5.2
230.2637 5.2
230.2916 5.2
230.3221 5.2
230.3503 5.2
230.3817 5.2
230.4151 5.2
230.445 5.2
230.4743 5.2
230.5072 5.2
230.5381 5.2
230.5715 5.2
230.6003 5.2
230.6325 5.2
230.6611 5.2
230.6915 5.2
230.7248 5.2
230.7541 5.2
230.783 5.2
230.8125 5.2
230.8459 5.2
230.8792 5.45
230.9095 5.85
230.9427 5.85
230.976 6.55
231.0064 7.6
231.0397 7.6
231.0728 8.7
231.1013 9.35
231.1324 9.35
231.1624 9.6
231.1958 9.6
231.2235 9.6
231.253 9.6
231.2861 9.6
231.3192 9.6
231.3525 9.6
231.3835 9.6
231.4153 9.6
231.4487 9.6
231.4782 9.6
231.5116 9.6
231.5449 9.6
231.5779 9.8
231.6112 9.8
231.6435 10
231.6768 10.25
231.7083 10.25
231.7409 10.7
231.7706 11.1
231.8022 11.1
231.8356 11.75
231.8689 12.2
231.9022 12.2
231.9312 12.65
231.9645 13.1
231.9978 13.3
232.0286 13.3
232.0583 13.3
232.0875 13.3
232.1168 13.3
232.1501 13.3
232.178 13.3
232.2079 13.3
232.2358 13.3
232.2692 13.5
232.3025 13.95
232.335 13.95
232.3644 14.6
232.3939 15.7
232.4228 15.7
232.4562 16.6
232.4862 17.25
232.5174 17.25
232.5472 17.9
232.5806 18.75
232.6139 18.75
232.6452 19.4
232.6743 20.3
232.7076 20.3
232.741 21.4
232.7743 22.25
232.804 22.25
232.8368 23.15
232.8667 24.45
232.8967 24.45
232.93 25.75
232.9633 27.3
232.9953 27.3
233.0287 28.35
233.0591 29.7
233.0924 29.7
233.1222 31
233.1528 31.85
233.1815 31.85
233.2117 32.95
233.245 34.25
233.2765 34.25
233.3099 36
233.3409 36
233.3706 37.1
233.4039 38.85
233.4348 40.6
233.4656 40.6
233.4973 42.15
233.5297 42.15
233.563 43.45
233.5932 45.2
233.6254 45.2
233.6587 46.95
233.6899 48.7
233.7232 48.7
233.7552 50.2
233.7885 51.75
233.8205 51.75
233.8506 52.85
233.884 53.95
233.9173 53.95
233.9464 55
233.9774 55.7
234.0106 55.7
234.044 56.75
234.0737 57.65
234.1044 57.65
234.1364 58.75
234.1674 59.85
234.2007 59.85
234.2337 60.7
234.2671 62.65
234.2976 62.65
234.3265 64.2
234.3598 65.75
234.3888 65.75
234.4203 67.5
234.4507 68.8
234.4841 68.8
234.5174 70.3
234.5507 71.4
234.5804 71.4
234.6132 72.95
234.6426 74.05
234.676 74.05
234.7058 75.55
234.7391 77.1
234.7719 77.1
234.8016 78.2
234.8349 79.25
234.8645 79.25
234.8935 80.6
234.9239 80.6
234.9565 81.45
234.9898 82.1
235.0211 82.75
235.0516 82.75
235.0818 82.75
235.113 82.75
235.1463 82.75
235.1777 82.75
235.2077 82.75
235.24 82.75
235.2728 82.55
235.3061 82.55
235.3356 82.35
235.3685 82.35
235.4018 82.35
235.4313 82.35
235.4646 82.35
235.4952 82.35
235.5286 82.35
235.5591 82.35
235.5924 82.35
235.6258 82.35
235.6582 82.35
235.6906 82.35
235.7238 82.35
235.7543 82.35
235.7877 82.35
235.8208 82.55
235.8495 83
235.8801 83
235.9121 83.2
235.9454 83.65
235.9764 83.65
236.0097 84.1
236.0389 84.5
236.0721 84.5
236.1054 84.75
236.1371 84.95
236.1664 84.95
236.1963 84.95
236.2272 84.95
236.2605 84.95
236.2894 84.95
236.3189 84.95
236.352 84.95
236.3826 84.95
236.4159 84.95
236.4458 84.95
236.4742 84.95
236.5076 84.95
236.5376 84.95
236.571 84.95
236.6013 84.95
236.6346 84.95
236.6629 84.95
236.6926 84.95
236.7259 84.95
236.7553 84.95
236.7853 84.95
236.8158 85.15
236.8491 85.15
236.8824 85.4
236.9157 85.6
236.9491 86.05
236.9798 86.05
237.0112 86.5
237.0445 86.5
237.0747 86.9
237.1028 87.55
237.1328 87.55
237.1614 88.25
237.1948 88.65
237.2275 88.65
237.258 89.3
237.2866 89.3
237.3199 89.55
237.3533 90.2
237.3839 90.65
237.4135 90.65
237.4433 91.05
237.4718 91.05
237.5051 91.3
237.5378 91.3
237.5703 91.3
237.6007 91.3
237.6306 91.3
237.664 91.3
237.696 91.3
237.7249 91.3
237.7546 91.3
237.7845 91.3
237.8179 91.3
237.846 91.3
237.8757 91.3
237.9041 91.3
237.9361 91.3
237.9694 91.3
237.9991 91.3
238.0278 91.5
238.0611 91.7
238.0918 91.7
238.1251 92.15
238.1583 92.8
238.1913 92.8
238.22 93.25
238.2533 93.9
238.2866 93.9
238.3186 94.15
238.3501 94.35
238.3796 94.35
238.4091 94.55
238.4424 94.55
238.4758 94.55
238.5091 94.55
238.5424 94.55
238.574 94.55
238.6074 94.55
238.6395 94.55
238.6688 94.55
238.6985 94.55
238.7276 94.55
238.761 94.55
238.7897 94.8
238.8231 94.8
238.8527 95
238.886 95.2
238.9193 95.65
238.9499 95.65
238.9785 95.85
239.0117 95.85
239.0421 96.1
239.0755 96.55
239.1059 96.55
239.1355 96.75
239.1646 96.75
239.1944 96.75
239.2278 96.75
239.2576 96.75
239.2893 96.75
239.3203 96.75
239.3536 96.75
239.3869 96.75
239.4182 96.95
239.4515 96.95
239.4825 96.95
239.5147 97.2
239.548 97.2
239.5777 97.4
239.6068 97.4
239.6383 97.4
239.6679 97.85
239.7012 98.05
239.7345 98.05
239.7661 98.3
239.7994 98.5
239.8302 98.5
239.8635 98.7
239.8958 98.95
239.9283 98.95
239.9604 99.15
239.9894 99.15
240.0228 99.15
240.0561 99.35
240.0869 99.35
240.115 99.35
240.148 99.35
240.1813 99.6
240.2146 99.6
240.248 99.8
240.2813 100
240.3106 100
240.3439 100.45
240.3773 100.7
240.4063 101.1
240.4363 101.1
240.4697 101.75
240.503 102.2
240.5344 102.2
240.5631 102.65
240.5964 102.65
240.6297 102.85
240.6631 103.1
240.6942 103.3
240.7275 103.3
240.7605 103.5
240.7909 103.75
240.8242 103.75
240.8576 103.95
240.887 104.4
240.9169 104.4
240.9502 104.6
240.9836 104.85
241.0139 104.85
241.0472 105.05
241.0763 105.25
241.1071 105.25
241.1404 105.5
241.1737 105.7
241.2049 105.7
241.2382 105.7
241.2688 105.9
241.3022 105.9
241.3323 105.9
241.3657 105.9
241.3941 105.9
241.427 105.9
241.4603 105.9
241.4937 105.9
241.5221 105.9
241.5523 105.9
241.5836 105.9
241.6169 105.9
241.6481 105.9
241.6814 105.9
241.7106 105.9
241.744 105.9
241.7773 105.9
241.8106 105.9
241.844 106.15
241.8752 106.15
241.9043 106.6
241.9376 107.25
241.9666 107.25
241.998 107.9
242.0313 108.3
242.0623 108.3
242.0956 108.75
242.1259 109.2
242.1569 109.2
242.1902 109.4
242.2218 109.4
242.2551 109.4
242.2844 109.4
242.3177 109.4
242.3511 109.4
242.3825 109.4
242.4159 109.4
242.4492 109.4
242.4793 109.4
242.5123 109.4
242.5435 109.4
242.5768 109.4
242.6075 109.4
242.6408 109.4
242.6718 109.4
242.7026 109.4
242.7359 109.4
242.7692 109.4
242.802 109.4
242.8347 109.4
242.868 109.4
242.9013 109.4
242.9298 109.4
242.9607 109.4
242.9917 109.2
243.0244 109.2
243.0578 109
243.0911 108.75
243.1244 108.3
243.1571 108.3
243.1905 107.9
243.2213 107.65
243.2503 107.65
243.2809 107.45
243.3142 107
243.3475 107
243.3773 106.35
243.4077 106.35
243.4379 105.7
243.4712 104.6
243.5045 103.75
243.5379 103.75
243.5692 102.45
243.6025 100.9
243.6359 99.8
243.6671 99.8
243.6976 98.05
243.729 98.05
243.7617 96.3
243.795 95
243.8272 93.25
243.8581 93.25
243.8899 91.3
243.9233 89.55
243.9566 89.55
243.9866 87.35
244.0162 87.35
244.0481 84.75
244.0815 82.35
244.1148 79.7
244.1481 79.7
244.1778 77.1
244.2099 77.1
244.2432 73.6
244.2766 70.75
244.3099 68.8
244.3432 68.8
244.3765 66.8
244.406 64.65
244.4393 64.65
244.4686 63.1
244.4988 62
244.5288 62
244.5591 60.25
244.5924 58.5
244.6257 58.5
244.6558 56.75
244.6888 54.6
244.7206 54.6
244.7539 51.95
244.7871 50
244.8178 50
244.849 47.6
244.8811 45.2
244.9145 45.2
244.9464 43.65
244.976 43.65
245.0093 42.15
245.0392 40.4
245.0725 39.1
245.1053 39.1
245.1382 37.1
245.1701 35.15
245.2034 35.15
245.2368 33.6
245.2668 31.85
245.2972 31.85
245.3305 31
245.3638 30.8
245.3972 30.8
245.4269 30.8
245.4565 30.8
245.4861 30.8
245.5195 30.8
245.5528 30.8
245.5831 30.8
245.6122 30.8
245.6439 30.8
245.6759 30.8
245.7092 30.8
245.7382 30.8
245.7706 30.35
245.8022 29.7
245.8355 29.7
245.8689 28.8
245.9022 28.15
245.9317 28.15
245.9625 27.7
245.9922 27.5
246.0255 27.5
246.0566 27.5
246.0869 27.5
246.1203 27.5
246.1505 27.5
246.1838 27.5
246.2154 27.5
246.2482 27.5
246.2775 27.5
246.3109 27.5
246.3442 27.5
246.3725 27.5
246.4024 27.5
246.4357 27.5
246.469 27.5
246.5024 27.5
246.5327 27.5
246.5654 27.5
246.5968 27.5
246.626 27.5
246.6593 27.5
246.6927 27.5
246.726 27.5
246.7593 27.5
246.7926 27.5
246.826 27.5
246.8593 27.5
246.8893 27.5
246.9212 27.5
246.9546 27.5
246.986 27.5
247.0149 27.5
247.0465 27.5
247.0779 27.5
247.1113 27.5
247.1407 27.5
247.1719 27.5
247.2017 27.5
247.2318 27.5
247.2652 27.5
247.2975 27.5
247.3279 27.5
247.3586 27.5
247.3897 27.5
247.4231 27.5
247.4564 27.5
247.4872 27.5
247.5159 27.5
247.5492 27.5
247.5825 27.5
247.6128 27.5
247.6457 27.5
247.6773 27.5
247.7068 27.5
247.7402 27.5
247.7695 27.5
247.7993 27.5
247.8276 27.5
247.858 27.5
247.8914 27.5
247.9236 27.5
247.9564 27.5
247.9862 27.5
248.0169 27.5
248.0502 27.5
248.0821 27.5
248.1154 27.5
248.1438 27.5
248.1757 27.5
248.209 27.5
248.2392 27.5
248.2717 27.5
248.3013 27.5
248.3346 27.5
248.368 27.5
248.3965 27.5
248.4298 27.5
248.4591 27.5
248.4924 27.5
248.5258 27.5
248.556 27.5
248.5866 27.5
248.6157 27.5
248.649 27.5
248.6824 27.5
248.7136 27.5
248.7437 27.5
248.775 27.5
248.8083 27.5
248.8417 27.5
248.8742 27.5
248.9032 27.5
248.9353 27.5
248.9667 27.5
249 27.5
249.0309 27.5
249.0607 27.5
249.093 27.5
249.124 27.5
249.1573 27.5
249.1893 27.5
249.2227 27.5
249.2515 27.5
249.2828 27.5
249.3161 27.5
249.3453 27.5
249.3756 27.5
249.4073 27.5
249.4396 27.5
249.4729 27.5
249.5062 27.5
249.5372 27.5
249.5706 27.5
249.6032 27.5
249.6365 27.5
249.6652 27.5
249.6985 27.5
249.7289 27.5
249.7622 27.5
249.7955 27.5
249.8269 27.5
249.8602 27.5
249.8898 27.5
249.9186 27.5
249.952 27.5
249.9825 27.5
250.0123 27.5
250.0457 27.5
250.0773 27.5
250.1107 27.5
250.144 27.5
250.1729 27.5
250.2063 27.5
250.2355 27.5
250.2688 27.5
250.2978 27.5
250.3287 27.5
250.362 27.5
250.394 27.5
250.4273 27.5
250.4586 27.5
250.491 27.5
250.5222 27.5
250.5513 27.5
250.5846 27.5
250.6165 27.5
250.6483 27.5
250.6809 27.5
250.7134 27.5
250.7467 27.5
250.7801 27.5
250.8126 27.5
250.8459 27.5
250.8755 27.5
250.9088 27.5
250.9406 27.5
250.97 27.5
251.0006 27.5
251.034 27.5
251.0673 27.5
251.0972 27.5
251.1275 27.5
251.1582 27.5
251.1903 27.5
251.2236 27.5
251.257 27.5
251.2867 27.5
251.3154 27.5
251.3475 27.5
251.3808 27.5
251.4142 27.5
251.4418 27.5
251.4717 27.5
251.505 27.5
251.5384 27.5
251.5679 27.5
251.5992 27.5
251.6306 27.5
251.6626 27.5
251.696 27.5
251.7293 27.5
251.7626 27.5
251.7932 27.5
251.8233 27.5
251.8566 27.5
251.8853 27.5
251.9184 27.5
251.951 27.5
251.9801 27.5
252.0135 27.5
252.0442 27.5
252.0757 27.5
252.1054 27.5
252.1363 27.5
252.1696 27.5
252.1984 27.5
252.2318 27.5
252.2651 27.5
252.2983 27.5
252.3316 27.5
252.365 27.5
252.3933 27.5
252.4253 27.5
252.456 27.5
252.4893 27.5
252.5227 27.5
252.5531 27.5
252.5865 27.5
252.6181 27.5
252.6515 27.5
252.6821 27.5
252.7134 27.5
252.7468 27.5
252.7801 27.5
252.8134 27.5
252.8435 27.5
252.874 27.5
252.903 27.5
252.9359 27.5
252.9693 27.5
253.0026 27.5
253.0315 27.5
253.0636 27.5
253.0925 27.5
253.1258 27.5
253.1582 27.5
253.1883 27.5
253.2208 27.5
253.2541 27.5
253.2874 27.5
253.3201 27.5
253.3489 27.5
253.3823 27.5
253.4133 27.5
253.4466 27.5
253.4799 27.5
253.5133 27.5
253.5466 27.5
253.5799 27.5
253.6127 27.5
253.6461 27.5
253.6794 27.5
253.7127 27.5
253.7461 27.5
253.7794 27.5
253.8098 27.5
253.8427 27.5
253.873 27.5
253.9064 27.5
253.9397 27.5
253.9702 27.5
254.0002 27.5
254.0318 27.5
254.0652 27.5
254.0969 27.5
254.1262 27.5
254.1596 27.5
254.1929 27.5
254.2262 27.5
254.2561 27.5
254.2894 27.5
254.3217 27.5
254.3531 27.5
254.3865 27.5
254.4194 27.5
254.4527 27.5
254.4861 27.5
254.5194 27.5
254.5527 27.5
254.5827 27.5
254.614 27.5
254.6423 27.5
254.6757 27.5
254.709 27.5
254.7423 27.5
254.7757 27.5
254.809 27.5
254.8386 27.5
254.8719 27.5
254.9042 27.5
254.9376 27.5
254.9685 27.5
254.998 27.5
255.0313 27.5
255.0619 27.5
255.0941 27.5
255.1275 27.5
255.1565 27.5
255.1899 27.5
255.2229 27.5
255.2562 27.5
255.2896 27.5
255.3229 27.5
255.3562 27.5
255.3895 27.5
255.4228 27.5
255.4561 27.5
255.4855 27.5
255.5188 27.5
255.548 27.5
255.5814 27.5
255.6147 27.5
255.6459 27.5
255.6792 27.5
255.7125 27.5
255.7442 27.5
255.7776 27.5
255.8109 27.5
255.8401 27.5
255.8735 27.5
255.9043 27.5
255.9376 27.5
255.9677 27.5
255.9968 27.5
256.0279 27.5
256.0612 27.5
256.0945 27.5
256.1241 27.5
256.1574 27.5
