時間[s] タイヤの舵角[deg]
0 0
0.02 21
0.05333333 21
0.08666666 21
0.12 21
0.1521358 21
0.1854691 21
0.2171105 21
0.2474732 21
0.2766623 21
0.3076852 21
0.3365902 21
0.3652121 21
0.3944782 21
0.4240556 21
0.4531648 21
0.4816194 21
0.5104453 21
0.5385298 21
0.5683103 21
0.60043 21
0.629516 21
0.6574404 21
0.6846129 21
0.7137673 21
0.7429254 21
0.7704737 21
0.8003166 21
0.8304347 21
0.8608526 21
0.894186 21
0.9264113 21
0.9562175 21
0.986788 21
1.016369 21
1.045811 21
1.073499 21
1.102404 21
1.133558 21
1.163649 21
1.196982 21
1.227526 21
1.260859 21
1.293138 21
1.321576 21
1.35196 21
1.380646 21
1.413898 21
1.447231 21
1.477095 21
1.506915 21
1.536506 21
1.56506 21
1.594457 21
1.623631 21
1.656964 21
1.685055 21
1.716587 21
1.74992 21
1.778077 21
1.81141 21
1.842414 21
1.87158 21
1.901934 21
1.933345 21
1.964822 21
1.996694 21
2.027312 21
2.060013 21
2.089022 21
2.11982 21
2.150528 21
2.180528 21
2.212559 21
2.245893 21
2.276129 21
2.307666 21
2.336442 21
2.368169 21
2.398797 21
2.428506 21
2.46184 21
2.495173 21
2.524699 21
2.553145 21
2.582984 21
2.611514 21
2.641045 21
2.670801 21
2.701205 21
2.734539 21
2.763125 21
2.791175 21
2.824509 21
2.855924 21
2.889124 21
2.922457 21
2.952866 21
2.982826 21
3.014851 21
3.045514 21
3.074975 21
3.103652 21
3.134153 21
3.163011 21
3.193496 21
3.225265 21
3.253176 21
3.28651 21
3.31557 21
3.344127 21
3.375485 21
3.408172 21
3.440303 21
3.46836 21
3.49712 21
3.526767 21
3.557172 21
3.585473 21
3.615355 21
3.645563 21
3.678896 21
3.710281 21
3.742106 21
3.771396 21
3.802955 21
3.833914 21
3.862145 21
3.895478 21
3.927854 21
3.957642 21
3.989379 21
4.018976 21
4.048999 21
4.081105 21
4.114439 34
4.147772 34
4.176025 74
4.208118 139
4.241048 139
4.271285 218
4.302814 218
4.332705 292
4.363282 375
4.396194 375
4.429527 436
4.458734 467
4.492067 467
4.521868 441
4.555201 393
4.583833 393
4.613688 314
4.642323 314
4.673836 235
4.704763 174
4.73326 174
4.766593 117
4.797782 48
4.825718 48
4.854719 13
4.886556 13
4.916666 -21
4.948956 -26
4.980605 -26
5.010017 -26
5.043351 -26
5.076684 -26
5.109297 -26
5.137834 -26
5.171167 -26
5.201481 -26
5.231846 -26
5.262897 -17
5.29167 -17
5.320326 0
5.35366 21
5.386993 56
5.419145 56
5.448153 83
5.476325 83
5.506401 100
5.536159 113
5.569492 113
5.602129 122
5.634313 122
5.666206 122
5.694693 126
5.724931 126
5.753263 126
5.782037 126
5.809724 126
5.838965 126
5.867845 126
5.899206 126
5.927948 126
5.958951 126
5.988274 126
6.020236 126
6.051651 126
6.084984 126
6.114706 126
6.14585 135
6.177227 135
6.206526 157
6.237771 218
6.269851 218
6.300531 275
6.331487 275
6.36482 340
6.396634 375
6.42659 375
6.457074 406
6.488269 423
6.517725 423
6.546811 423
6.577031 423
6.605321 423
6.638655 423
6.668658 423
6.697606 423
6.726012 423
6.756601 423
6.786613 432
6.819947 432
6.849558 445
6.879563 445
6.909549 471
6.941832 498
6.971796 498
7.003485 515
7.032891 541
7.063218 541
7.096551 563
7.129808 563
7.160255 576
7.190247 594
7.21969 594
7.251415 602
7.280797 602
7.309707 602
7.33937 602
7.372703 602
7.402445 602
7.433381 602
7.463435 602
7.496768 602
7.530101 602
7.563435 602
7.596094 602
7.62681 607
7.656515 607
7.689848 620
7.720016 620
7.750994 646
7.781895 677
7.813455 677
7.846788 720
7.875927 777
7.909261 777
7.937692 834
7.966361 886
7.996047 886
8.024855 930
8.052426 930
8.0804 956
8.113733 974
8.142354 974
8.174374 1000
8.207365 1000
8.238605 1013
8.268682 1017
8.302014 1017
8.330517 1017
8.36385 1017
8.392393 1017
8.420883 1022
8.454217 1031
8.48755 1031
8.515574 1044
8.544561 1044
8.573239 1052
8.606572 1061
8.638192 1061
8.6674 1066
8.697658 1066
8.72871 1066
8.762043 1066
8.791013 1066
8.819892 1066
8.853225 1066
8.882534 1066
8.915288 1066
8.943882 1066
8.974089 1066
9.005416 1066
9.036836 1066
9.068847 1070
9.10083 1074
9.130748 1074
9.16109 1087
9.190946 1100
9.222316 1100
9.250998 1109
9.284331 1109
9.317664 1114
9.350998 1114
9.382787 1114
9.412051 1114
9.44151 1114
9.474844 1114
9.505355 1114
9.5344 1114
9.564353 1114
9.597081 1114
9.630414 1114
9.660867 1114
9.689877 1114
9.722272 1114
9.752825 1114
9.782112 1114
9.811216 1114
9.842013 1114
9.871615 1114
9.901732 1114
9.934035 1114
9.967369 1114
10.0007 1114
10.03099 1114
10.06355 1114
10.09688 1109
10.12848 1109
10.15975 1109
10.19055 1109
10.22279 1109
10.25286 1109
10.28089 1096
10.31422 1096
10.34371 1079
10.37704 1057
10.40687 1057
10.4366 1035
10.46716 1035
10.50012 1031
10.5292 1031
10.55849 1031
10.58809 1031
10.61741 1031
10.648 1031
10.67749 1026
10.70589 1026
10.7342 1017
10.7634 1017
10.79245 1000
10.82394 978
10.85728 978
10.8873 952
10.92064 930
10.95054 930
10.98388 908
11.01229 908
11.0448 882
11.07574 860
11.10483 860
11.13544 843
11.16692 834
11.20025 834
11.23264 834
11.26598 834
11.29925 834
11.32922 834
11.35876 834
11.38939 834
11.4175 834
11.44948 834
11.47838 834
11.51171 834
11.54182 834
11.57098 834
11.60431 834
11.63322 834
11.66238 834
11.69571 834
11.72766 834
11.75537 834
11.78646 834
11.8182 834
11.85153 834
11.88099 834
11.91047 834
11.9438 834
11.97669 834
12.01003 834
12.04005 834
12.07153 834
12.10367 834
12.13257 834
12.16397 834
12.1955 834
12.22559 834
12.25535 834
12.28868 834
12.32015 834
12.3481 834
12.37909 834
12.40876 834
12.43724 834
12.46698 834
12.49962 834
12.53099 834
12.56433 834
12.59322 834
12.62543 834
12.65631 834
12.68964 834
12.71818 834
12.74756 834
12.77822 834
12.80935 834
12.84268 834
12.87199 834
12.90532 834
12.93483 834
12.96493 834
12.99683 834
13.02867 834
13.05893 834
13.08793 834
13.12126 834
13.15192 834
13.18009 834
13.20883 834
13.23845 834
13.27124 834
13.30457 834
13.33472 834
13.36468 834
13.39552 834
13.42566 834
13.45899 834
13.49141 834
13.52412 834
13.55406 834
13.58438 834
13.61772 834
13.64826 834
13.67777 834
13.7073 834
13.74063 834
13.77054 834
13.79922 834
13.8297 834
13.86303 834
13.8931 834
13.92548 834
13.9552 834
13.98507 834
14.0184 834
14.05105 834
14.08089 834
14.11061 834
14.14293 834
14.1716 834
14.20494 834
14.23827 834
14.2716 834
14.30225 834
14.33232 834
14.36566 834
14.39899 834
14.42819 834
14.45867 834
14.49122 834
14.52069 834
14.55011 834
14.58233 834
14.61256 834
14.64206 834
14.67197 834
14.70211 834
14.73138 834
14.76471 834
14.79514 834
14.82545 834
14.85513 834
14.8846 834
14.91675 834
14.94652 834
14.97818 834
15.00859 834
15.03802 834
15.07136 834
15.10063 834
15.13396 834
15.16409 834
15.19695 834
15.23019 834
15.26337 834
15.29307 834
15.3264 834
15.35693 834
15.38657 834
15.4199 834
15.4506 834
15.47989 834
15.50923 834
15.53932 834
15.56907 834
15.59982 834
15.63315 834
15.66212 834
15.69188 834
15.72125 834
15.75015 834
15.78348 834
15.81346 834
15.84227 834
15.87295 834
15.90299 834
15.93254 834
15.96338 834
15.99307 834
16.0218 834
16.05491 834
16.08452 834
16.11785 834
16.15046 834
16.18039 834
16.2122 834
16.24344 834
16.27583 834
16.30625 834
16.33958 834
16.37143 834
16.40255 834
16.43186 834
16.46456 834
16.4935 834
16.52538 834
16.5562 834
16.58954 834
16.6185 834
16.65086 834
16.68037 834
16.70959 834
16.73979 834
16.77261 834
16.80439 834
16.83772 834
16.86763 834
16.8985 834
16.92822 834
16.96045 834
16.99378 834
17.02684 834
17.06017 834
17.09131 834
17.12067 834
17.15401 834
17.18308 834
17.21396 834
17.24729 834
17.27939 834
17.31017 834
17.34132 834
17.37406 834
17.40343 834
17.43233 834
17.46525 834
17.49859 834
17.52762 834
17.5574 834
17.58701 834
17.61588 834
17.6469 834
17.67684 834
17.70531 834
17.73618 834
17.76793 834
17.79865 834
17.82816 834
17.86014 834
17.89078 834
17.92411 834
17.95509 834
17.98427 834
18.01369 834
18.04374 834
18.07454 834
18.10465 834
18.13798 834
18.16837 834
18.2017 834
18.23504 834
18.26435 834
18.2938 834
18.32391 834
18.35275 834
18.38227 834
18.41272 834
18.44228 834
18.4714 834
18.503 834
18.53492 834
18.5648 834
18.59813 834
18.62952 834
18.66286 834
18.69202 834
18.72535 834
18.7568 834
18.78762 834
18.81847 834
18.84961 834
18.88009 834
18.90893 834
18.9393 834
18.9698 834
19.00313 834
19.03241 834
19.06575 834
19.09819 834
19.13152 834
19.16114 834
19.19208 834
19.22201 834
19.25534 834
19.28429 834
19.31372 834
19.34705 834
19.38039 834
19.41067 834
19.43997 834
19.4733 834
19.50508 834
19.53582 834
19.56915 834
19.59978 834
19.63311 834
19.66301 834
19.69396 834
19.72449 834
19.75409 834
19.7854 834
19.81639 834
19.84515 834
19.87605 834
19.9056 834
19.93653 834
19.96604 834
19.99586 834
20.02835 834
20.05857 834
20.08765 834
20.1166 834
20.14799 834
20.1809 834
20.21129 834
20.24463 834
20.27482 834
20.30815 834
20.33954 834
20.37288 834
20.40198 834
20.4321 834
20.46544 834
20.49877 834
20.52862 834
20.55984 834
20.59034 834
20.62066 834
20.65198 834
20.68096 834
20.71282 834
20.74359 834
20.77291 834
20.80384 834
20.83482 834
20.86374 834
20.89358 834
20.92691 834
20.95797 834
20.98964 834
21.02117 834
21.04986 834
21.08156 834
21.11276 834
21.14268 834
21.17601 834
21.20694 834
21.23865 834
21.26967 834
21.30301 834
21.33634 834
21.36567 834
21.39889 834
21.42883 834
21.45858 834
21.49192 834
21.52091 834
21.55272 834
21.58605 834
21.61677 834
21.64709 834
21.67705 834
21.70775 834
21.73781 834
21.77095 834
21.80187 834
21.8323 834
21.86195 834
21.89276 834
21.92277 834
21.9527 834
21.98173 834
22.01152 834
22.04486 834
22.07819 834
22.10835 834
22.13898 834
22.17232 834
22.20287 834
22.23291 834
22.2617 834
22.29503 834
22.32633 834
22.35548 834
22.38882 834
22.41808 834
22.44798 834
22.47807 834
22.51133 834
22.54328 834
22.57471 834
22.60433 834
22.63306 834
22.66308 834
22.69306 834
22.7264 834
22.7567 834
22.78668 834
22.82002 834
22.85065 834
22.88179 834
22.91102 834
22.94092 834
22.97107 834
23.00133 834
23.03197 834
23.06368 834
23.09349 834
23.12436 834
23.15495 834
23.18828 834
23.21881 834
23.24836 834
23.2817 834
23.3112 834
23.34058 834
23.37015 834
23.39951 834
23.42896 834
23.45849 834
23.49039 834
23.52052 834
23.55032 834
23.58067 834
23.61321 834
23.64654 834
23.67987 834
23.70943 834
23.73846 834
23.77072 834
23.80037 834
23.82962 834
23.86029 834
23.89293 834
23.92283 834
23.95348 834
23.98317 834
24.01651 834
24.04781 834
24.07784 834
24.1088 834
24.13949 834
24.17283 834
24.20323 834
24.23431 834
24.26549 834
24.29581 834
24.32725 834
24.36036 834
24.39054 834
24.42002 834
24.44985 834
24.47931 834
24.50973 834
24.54265 834
24.57598 834
24.60538 834
24.63558 834
24.66891 834
24.69896 834
24.73229 834
24.76155 834
24.79242 834
24.82438 834
24.85771 834
24.88907 834
24.91973 834
24.95306 834
24.9844 834
25.01773 834
25.05107 834
25.08254 834
25.11481 834
25.1455 834
25.17614 834
25.20947 834
25.2428 834
25.27248 834
25.30215 834
25.33226 834
25.3631 834
25.3958 834
25.42913 834
25.46246 834
25.49453 834
25.52492 834
25.55804 834
25.58907 834
25.61809 834
25.65063 834
25.68106 834
25.71317 834
25.74651 834
25.77682 834
25.80602 834
25.83725 834
25.86739 834
25.89947 834
25.92978 834
25.96301 834
25.99412 834
26.02431 834
26.05765 834
26.08898 834
26.11942 834
26.15275 834
26.18609 834
26.21901 834
26.24996 834
26.28203 834
26.31244 834
26.3429 834
26.37409 834
26.4038 834
26.43443 834
26.46559 834
26.49892 834
26.52809 834
26.55672 834
26.58666 834
26.61694 834
26.64703 834
26.68036 834
26.71353 834
26.74536 834
26.77656 834
26.8079 834
26.83791 834
26.86789 834
26.9007 834
26.93365 834
26.96699 834
26.99989 834
27.02965 834
27.0596 834
27.08942 834
27.12276 834
27.15181 834
27.1833 834
27.21398 834
27.2444 834
27.27461 834
27.30323 834
27.33657 834
27.36771 834
27.40015 834
27.42974 834
27.46083 834
27.49027 834
27.5236 834
27.55296 834
27.58218 834
27.61552 834
27.64885 834
27.6818 834
27.71139 834
27.74143 834
27.77476 834
27.8081 834
27.83791 834
27.86714 834
27.89786 834
27.92814 834
27.95653 834
27.98986 834
28.01968 834
28.04984 834
28.08317 834
28.1165 834
28.14516 834
28.17793 834
28.21062 834
28.24317 834
28.27317 834
28.30275 834
28.332 834
28.3631 834
28.39643 834
28.42548 834
28.45881 834
28.48849 834
28.51945 834
28.5485 834
28.57959 834
28.611 834
28.64252 834
28.6728 834
28.7022 834
28.73175 834
28.76231 834
28.79564 834
28.82578 834
28.85911 834
28.88982 834
28.92316 834
28.95497 834
28.9848 834
29.01813 834
29.05102 834
29.08378 834
29.11317 834
29.14651 834
29.17966 834
29.20949 834
29.23989 834
29.27323 834
29.30328 834
29.33332 834
29.36343 834
29.39609 834
29.4253 834
29.45563 834
29.48553 834
29.51887 834
29.54835 834
29.58169 834
29.61137 834
29.64046 834
29.67241 834
29.70233 834
29.73177 834
29.76175 834
29.79359 834
29.82324 834
29.85283 834
29.88518 834
29.91457 834
29.94791 834
29.97875 834
30.00927 834
30.0426 834
30.07334 834
30.10262 834
30.1342 834
30.16491 834
30.19399 834
30.22581 834
30.25664 834
30.28997 834
30.32006 834
30.3499 834
30.37967 834
30.41058 834
30.44391 834
30.47373 834
30.50472 834
30.53495 834
30.564 834
30.59561 834
30.62872 834
30.66205 834
30.69539 834
30.72589 834
30.75498 834
30.78515 834
30.81628 834
30.84564 834
30.87897 834
30.91017 834
30.9435 834
30.97337 834
31.0067 834
31.03679 834
31.06914 834
31.09895 834
31.12897 834
31.15959 834
31.19292 834
31.22625 834
31.25725 834
31.28961 834
31.32222 834
31.35184 834
31.3817 834
31.41414 834
31.44618 834
31.47673 834
31.50635 834
31.53687 834
31.5672 834
31.59614 834
31.62578 834
31.65621 834
31.68612 834
31.7164 834
31.74599 834
31.77932 834
31.80865 834
31.84198 834
31.87321 834
31.9051 834
31.93572 834
31.96706 834
31.99943 834
32.03151 834
32.06078 834
32.09197 834
32.12142 834
32.15475 834
32.18418 834
32.21471 834
32.24799 834
32.27881 834
32.31215 834
32.34548 834
32.37484 834
32.40474 834
32.43449 834
32.46572 834
32.49527 834
32.52431 834
32.55765 834
32.59098 834
32.62141 834
32.65474 834
32.68808 825
32.72141 777
32.75128 777
32.78204 694
32.81096 694
32.84061 598
32.87001 511
32.90334 511
32.9355 406
32.96564 301
32.99897 301
33.02887 231
33.06021 144
33.09138 144
33.12471 69
33.15413 69
33.18445 21
33.21778 -17
33.24957 -17
33.2829 -26
33.31241 -26
33.34574 -26
33.37558 -26
33.40708 -26
33.43765 -26
33.46872 -26
33.49923 -26
33.53256 -26
33.56589 -26
33.59502 -26
33.6268 -21
33.6573 -17
33.687 -17
33.71761 -4
33.74628 30
33.77613 30
33.80556 52
33.83556 52
33.86556 65
33.89889 69
33.93223 69
33.96326 69
33.99659 69
34.02645 69
34.05679 69
34.08728 69
34.11621 69
34.14806 69
34.17731 69
34.20974 69
34.23891 69
34.27224 69
34.30238 65
34.33571 65
34.36537 65
34.39573 61
34.42906 61
34.45811 48
34.48738 26
34.51821 26
34.54959 8
34.5792 8
34.61155 4
34.64488 4
34.67372 4
34.70479 4
34.73628 4
34.76801 4
34.79808 4
34.82816 4
34.8567 4
34.88642 4
34.91815 4
34.94745 4
34.98078 4
35.01354 4
35.04687 4
35.07828 4
35.11161 4
35.14095 4
35.17378 4
35.20712 4
35.2366 4
35.26621 4
35.2981 4
35.33004 4
35.36338 4
35.39559 4
35.42778 4
35.45806 4
35.49139 4
35.52473 4
35.55398 4
35.58731 4
35.61745 4
35.64705 4
35.6786 4
35.70852 4
35.73824 4
35.7672 4
35.79689 4
35.82654 4
35.85987 4
35.88916 4
35.9225 4
35.95583 4
35.98576 4
36.0191 4
36.04821 4
36.07716 4
36.108 4
36.13731 4
36.16646 4
36.19655 4
36.22602 4
36.2549 4
36.28542 4
36.31469 4
36.34701 4
36.37762 4
36.40735 4
36.43651 4
36.46984 4
36.50002 4
36.53104 4
36.56049 4
36.59382 4
36.62305 4
36.65366 4
36.68412 4
36.71745 4
36.75079 4
36.78299 4
36.81254 4
36.84224 4
36.87348 4
36.90291 4
36.93366 4
36.96352 4
36.99257 4
37.02591 4
37.05924 4
37.0887 4
37.12203 4
37.15408 4
37.18741 4
37.21647 4
37.24597 4
37.279 4
37.30868 4
37.34201 4
37.37525 4
37.40705 4
37.43663 4
37.46996 4
37.49997 4
37.53129 4
37.56194 4
37.59163 4
37.62374 4
37.65336 4
37.68507 4
37.71426 4
37.74316 4
37.77335 4
37.80668 4
37.83689 4
37.86695 4
37.8985 4
37.93163 4
37.96268 4
37.99549 4
38.02499 4
38.05502 4
38.08458 4
38.11314 4
38.14647 4
38.17578 4
38.20911 4
38.23898 4
38.2707 4
38.30067 4
38.33401 4
38.36677 4
38.39648 4
38.42574 4
38.45907 4
38.49197 4
38.5253 4
38.55711 4
38.58907 4
38.62224 4
38.65269 4
38.68513 4
38.71847 4
38.74942 4
38.77967 4
38.813 4
38.84277 4
38.87114 4
38.90089 4
38.93094 4
38.9632 4
38.99588 4
39.02922 4
39.06255 4
39.09224 4
39.12247 4
39.1558 4
39.18914 4
39.21914 4
39.25247 4
39.2858 4
39.31546 4
39.34879 4
39.37789 4
39.40911 4
39.44039 4
39.47058 4
39.49968 4
39.52923 4
39.5613 4
39.59108 4
39.62411 4
39.65379 4
39.68712 4
39.71614 4
39.74646 4
39.77705 4
39.80574 4
39.83764 4
39.87097 4
39.90431 4
39.93764 4
39.96709 4
40.00037 4
40.03371 4
40.06334 4
40.09355 4
40.12688 4
40.16021 4
40.1895 4
40.21938 4
40.24903 4
40.27818 4
40.31083 4
40.341 4
40.3702 4
40.40266 4
40.43599 4
40.46881 4
40.49848 4
40.53181 4
40.55986 4
40.5901 4
40.62344 4
40.65677 4
40.6901 4
40.7225 4
40.75184 4
40.7814 4
40.81473 4
40.8468 4
40.87595 4
40.90554 4
40.93766 4
40.97099 4
41.00352 4
41.03237 4
41.06381 4
41.09714 4
41.12825 4
41.16024 4
41.19358 4
41.22339 4
41.25673 4
41.29006 4
41.32339 4
41.35673 4
41.38862 4
41.41886 4
41.45162 4
41.48315 4
41.51645 4
41.54576 4
41.57498 4
41.60711 4
41.64045 4
41.67378 4
41.70711 4
41.74044 4
41.77053 4
41.79905 4
41.83231 4
41.8642 4
41.89471 4
41.92805 4
41.95982 4
41.98917 4
42.02081 4
42.05112 4
42.0806 4
42.11393 4
42.14608 4
42.17942 4
42.21275 4
42.24409 4
42.27433 4
42.30487 4
42.33746 4
42.36783 4
42.40117 4
42.43278 4
42.46275 4
42.49241 4
42.52226 4
42.55455 4
42.58468 4
42.61802 4
42.64768 4
42.67974 4
42.71307 4
42.74238 4
42.77469 4
42.80803 4
42.83923 4
42.86999 4
42.90108 4
42.93183 4
42.9616 4
42.99221 4
43.02143 4
43.05137 4
43.08083 4
43.11149 4
43.14296 4
43.17284 4
43.20172 4
43.23434 4
43.26768 4
43.29668 4
43.32659 4
43.35718 4
43.38786 4
43.41885 4
43.4485 4
43.48116 4
43.51063 4
43.5401 4
43.56985 4
43.59977 4
43.62933 4
43.65821 4
43.69014 4
43.71954 4
43.74913 4
43.78107 4
43.81441 4
43.84335 4
43.87592 4
43.90615 4
43.93536 4
43.96869 4
43.99881 4
44.03214 4
44.06422 4
44.09711 4
44.12879 4
44.16198 4
44.19447 4
44.22342 4
44.25424 4
44.28757 4
44.3167 4
44.3485 4
44.37917 4
44.40873 4
44.43856 4
44.4706 4
44.50162 4
44.53398 4
44.56731 4
44.59934 4
44.63011 4
44.66099 4
44.68991 4
44.7219 4
44.75261 4
44.78109 4
44.81145 4
44.8423 4
44.87563 4
44.90619 4
44.93554 4
44.96887 4
44.99805 4
45.03031 4
45.06069 4
45.08997 4
45.11976 4
45.14922 4
45.18168 4
45.21238 4
45.24571 4
45.27713 4
45.30869 4
45.34202 4
45.37344 4
45.40678 4
45.43565 4
45.46898 4
45.49806 4
45.52703 4
45.55751 4
45.59084 4
45.62328 4
45.65567 4
45.68855 4
45.72084 4
45.75237 4
45.7857 4
45.81468 4
45.84601 4
45.87637 4
45.90599 4
45.93586 4
45.9668 4
45.99537 4
46.0287 4
46.05803 4
46.09137 4
46.12259 4
46.15593 4
46.18773 4
46.21751 4
46.24785 4
46.27744 4
46.30711 4
46.34044 4
46.37026 4
46.40047 4
46.4338 4
46.46413 4
46.49616 4
46.52552 4
46.55593 4
46.58556 4
46.6185 4
46.65183 4
46.68517 4
46.71698 4
46.74652 4
46.77795 4
46.80896 4
46.84096 4
46.87268 4
46.90277 4
46.93274 4
46.96242 4
46.99272 4
47.02383 4
47.05691 4
47.08626 4
47.11959 4
47.15152 4
47.18139 4
47.21022 4
47.24255 4
47.27449 4
47.30536 4
47.33547 4
47.3688 4
47.39882 4
47.43181 4
47.46272 4
47.4918 4
47.52513 4
47.55789 4
47.59111 4
47.62444 4
47.65778 4
47.68784 4
47.71812 4
47.75145 4
47.78104 4
47.81063 4
47.84397 4
47.87288 4
47.90413 4
47.93411 4
47.96307 4
47.99292 4
48.02292 4
48.05603 4
48.08936 4
48.11877 4
48.14762 4
48.17929 4
48.20932 4
48.24092 4
48.27019 4
48.30096 4
48.33324 4
48.36262 4
48.3948 4
48.4238 4
48.45713 4
48.48646 4
48.51569 4
48.54791 4
48.57809 4
48.60738 4
48.63815 4
48.67149 4
48.70269 4
48.7329 4
48.76623 4
48.7956 4
48.82523 4
48.85544 4
48.88428 4
48.91493 4
48.94623 4
48.97624 4
49.006 4
49.03809 4
49.06802 4
49.10135 4
49.13469 4
49.16413 4
49.19468 4
49.22457 4
49.2558 4
49.28913 4
49.32132 4
49.35093 4
49.38247 4
49.4117 4
49.44217 4
49.47239 4
49.50573 4
49.53563 4
49.56543 4
49.59877 4
49.62838 4
49.65779 4
49.68728 4
49.72062 4
49.75063 4
49.77973 4
49.81224 4
49.84198 4
49.87307 4
49.90559 4
49.93892 4
49.9695 4
49.99931 4
50.02931 4
50.06264 4
50.09209 4
50.12307 4
50.15544 4
50.18613 4
50.21629 4
50.24633 4
50.27967 4
50.30926 4
50.34006 4
50.37339 4
50.4027 4
50.43553 4
50.46651 4
50.49628 4
50.52961 4
50.55866 4
50.592 4
50.62533 4
50.65564 4
50.68615 4
50.71775 4
50.74687 4
50.77731 4
50.81065 4
50.83996 4
50.87275 4
50.90608 4
50.93513 4
50.96473 4
50.99497 4
51.02367 4
51.0533 4
51.0853 4
51.11469 4
51.14794 4
51.17864 4
51.20994 4
51.24127 4
51.2746 4
51.30338 4
51.33425 4
51.36689 4
51.39751 4
51.42666 4
51.45629 4
51.48593 4
51.51543 4
51.5452 4
51.57853 4
51.6091 4
51.64243 4
51.67202 4
51.70392 4
51.7331 4
51.76435 4
51.7948 4
51.8254 4
51.85492 4
51.88559 4
51.9168 4
51.94791 4
51.98124 4
52.01457 4
52.04502 4
52.07436 4
52.10455 4
52.13405 4
52.16629 4
52.19533 4
52.22866 4
52.25998 4
52.28922 4
52.32255 4
52.35287 4
52.38271 4
52.41604 4
52.44593 4
52.47547 4
52.50766 4
52.53875 4
52.5694 4
52.59951 4
52.63171 4
52.66333 4
52.69666 4
52.7283 4
52.76096 4
52.79093 4
52.82016 4
52.85318 4
52.88281 4
52.91385 4
52.94718 4
52.97594 4
53.0076 4
53.03952 4
53.06824 4
53.09838 4
53.13171 4
53.16201 4
53.19185 4
53.22203 4
53.25139 4
53.28291 4
53.31286 4
53.34584 4
53.37583 4
53.40538 4
53.43441 4
53.46525 4
53.49858 4
53.52687 4
53.55905 4
53.59098 4
53.62167 4
53.65232 4
53.68566 4
53.7188 4
53.75213 4
53.78348 4
53.81285 4
53.84344 4
53.87262 4
53.90532 4
53.93505 4
53.96839 4
53.99696 4
54.02617 4
54.05643 4
54.08623 4
54.11575 4
54.14731 4
54.17785 4
54.20785 4
54.2388 4
54.26784 4
54.29704 4
54.32643 4
54.35603 4
54.38649 4
54.41853 4
54.44902 4
54.48024 4
54.5106 4
54.54102 4
54.57094 4
54.60167 4
54.63177 4
54.66511 4
54.69844 4
54.73178 4
54.76437 4
54.79674 4
54.8256 4
54.857 4
54.89006 4
54.91846 4
54.94913 4
54.97882 4
55.01134 4
55.04467 4
55.07571 4
55.10455 4
55.13588 4
55.16585 4
55.19918 4
55.23251 4
55.26407 4
55.29314 4
55.32389 4
55.35572 4
55.38444 4
55.41455 4
55.44504 4
55.47775 4
55.50887 4
55.53944 4
55.56993 4
55.59989 4
55.63079 4
55.66412 4
55.69578 4
55.72593 4
55.75688 4
55.78614 4
55.81947 4
55.84833 4
55.88166 4
55.91177 4
55.9403 4
55.97049 4
56.0029 4
56.0317 4
56.06336 4
56.09499 4
56.12606 4
56.15539 4
56.18872 4
56.22132 4
56.25275 4
56.28407 4
56.3174 4
56.34689 4
56.37653 4
56.40586 4
56.43621 4
56.46587 4
56.49511 4
56.52518 4
56.55851 4
56.58927 4
56.6226 4
56.65594 4
56.68541 4
56.71735 4
56.74758 4
56.77671 4
56.80828 4
56.84161 4
56.87282 4
56.90445 4
56.93513 4
56.96634 4
56.99968 4
57.03301 4
57.06635 4
57.09673 4
57.1268 4
57.15783 4
57.18952 4
57.22178 4
57.2513 4
57.28263 4
57.31597 4
57.3493 4
57.38006 4
57.41031 4
57.44364 4
57.47697 4
57.50748 4
57.54082 4
57.57093 4
57.60395 4
57.63438 4
57.66772 4
57.70105 4
57.73016 4
57.7609 4
57.79126 4
57.82143 4
57.85139 4
57.88472 4
57.91446 4
57.94779 4
57.97752 4
58.0074 4
58.04003 4
58.07336 4
58.10669 4
58.13804 4
58.16852 4
58.19886 4
58.2322 4
58.26553 4
58.29552 4
58.32724 4
58.36058 4
58.39388 4
58.42477 4
58.4581 4
58.48791 4
58.51869 4
58.55028 4
58.58048 4
58.6131 4
58.64643 4
58.67976 4
58.71255 4
58.74588 4
58.77513 4
58.80529 4
58.8363 4
58.86641 4
58.89974 4
58.92944 4
58.96277 4
58.99567 4
59.02571 4
59.05905 4
59.09238 4
59.12571 4
59.15836 4
59.1917 4
59.22266 4
59.25237 4
59.28212 4
59.31285 4
59.34443 4
59.37466 4
59.40429 4
59.4375 4
59.47083 4
59.5017 4
59.53144 4
59.56141 4
59.59204 4
59.62217 4
59.65276 4
59.68318 4
59.71403 4
59.74416 4
59.77641 4
59.80711 4
59.84045 4
59.87039 4
59.90216 4
59.93213 4
59.96202 4
59.99052 4
60.02332 4
60.05424 4
60.08757 4
60.11783 4
60.15117 4
60.18035 4
60.21368 4
60.2468 4
60.27892 4
60.31225 4
60.34559 4
60.37892 4
60.4114 4
60.44347 4
60.47416 4
60.50602 4
60.53936 4
60.56989 4
60.60284 4
60.63225 4
60.6623 4
60.69564 4
60.72606 4
60.75561 4
60.78483 4
60.81495 4
60.84362 4
60.87319 4
60.90471 4
60.93805 4
60.96796 4
60.99738 4
61.02761 4
61.05729 4
61.09019 4
61.12184 4
61.15346 4
61.18679 4
61.21564 4
61.24703 4
61.27628 4
61.30643 4
61.33585 4
61.36914 4
61.39992 4
61.42919 4
61.46252 4
61.49173 4
61.52474 4
61.55491 4
61.58395 4
61.61425 4
61.6453 4
61.67774 4
61.70726 4
61.73956 4
61.77164 4
61.80434 4
61.83504 4
61.86371 4
61.89434 4
61.92734 4
61.95642 4
61.98613 4
62.01947 4
62.0528 4
62.08596 4
62.11929 4
62.15193 4
62.18526 4
62.21558 4
62.2453 4
62.27588 4
62.30922 4
62.34255 4
62.37301 4
62.40258 4
62.43143 4
62.46164 4
62.49498 4
62.5252 4
62.55606 4
62.58887 4
62.61815 4
62.64982 4
62.6809 4
62.7113 4
62.74295 4
62.77362 4
62.80696 4
62.83686 4
62.86635 4
62.89935 4
62.93087 4
62.96119 4
62.9903 4
63.02363 4
63.05696 4
63.08821 4
63.11898 4
63.15072 4
63.18348 4
63.21275 4
63.24266 4
63.27431 4
63.30426 4
63.33599 4
63.36932 4
63.40248 4
63.43582 4
63.46727 4
63.50057 4
63.5321 4
63.56224 4
63.59277 4
63.62359 4
63.65358 4
63.68561 4
63.71797 4
63.74706 4
63.7804 4
63.81011 4
63.8423 4
63.87422 4
63.90755 4
63.93932 4
63.97004 4
64.00256 4
64.0359 4
64.06517 4
64.09673 4
64.12533 4
64.15866 4
64.18793 4
64.21759 4
64.25092 4
64.28002 4
64.30917 4
64.34155 4
64.37209 4
64.40221 4
64.43179 4
64.4624 4
64.4955 4
64.52883 4
64.55884 4
64.58855 4
64.62025 4
64.6534 4
64.68232 4
64.71483 4
64.74816 4
64.77692 4
64.80698 4
64.83619 4
64.86483 4
64.89516 4
64.92521 4
64.95546 4
64.98819 4
65.01949 4
65.05283 4
65.08192 4
65.11144 4
65.14088 4
65.17421 4
65.2045 4
65.23577 4
65.2691 4
65.29836 4
65.32676 4
65.35629 4
65.38549 4
65.41521 4
65.44841 4
65.4785 4
65.50942 4
65.53886 4
65.56983 4
65.59848 4
65.63181 4
65.66515 4
65.6965 4
65.72601 4
65.75553 4
65.78677 4
65.81787 4
65.84918 4
65.88251 4
65.91382 4
65.94312 4
65.97143 4
66.00201 4
66.03435 4
66.06642 4
66.09646 4
66.12766 4
66.15708 4
66.18889 4
66.21905 4
66.24762 4
66.2778 4
66.30744 4
66.33668 4
66.36606 4
66.3961 4
66.42551 4
66.45596 4
66.48582 4
66.51517 4
66.54674 4
66.58007 4
66.60884 4
66.63883 4
66.66951 4
66.69839 4
66.73172 4
66.76131 4
66.79143 4
66.82476 4
66.85648 4
66.88873 4
66.92206 4
66.95539 4
66.98585 4
67.01665 4
67.04659 4
67.07511 4
67.10458 4
67.13758 4
67.1689 4
67.19932 4
67.23125 4
67.26066 4
67.29112 4
67.32446 4
67.35441 4
67.38581 4
67.41817 4
67.45151 4
67.48267 4
67.51282 4
67.54147 4
67.57127 4
67.60387 4
67.6372 4
67.66915 4
67.70248 4
67.73557 4
67.76891 4
67.80199 4
67.8315 4
67.86484 4
67.89479 4
67.9239 4
67.95415 4
67.987 4
68.01736 4
68.04923 4
68.07854 4
68.11035 4
68.13934 4
68.16946 4
68.19907 4
68.22929 4
68.26134 4
68.29467 4
68.328 4
68.36134 4
68.39221 4
68.42554 4
68.45888 4
68.49129 4
68.52462 4
68.55721 4
68.58826 4
68.62032 4
68.65028 4
68.68362 4
68.71695 4
68.74751 4
68.77691 4
68.81024 4
68.84074 4
68.87068 4
68.90025 4
68.93109 4
68.96156 4
68.99173 4
69.02506 4
69.0584 4
69.08925 4
69.11961 4
69.15031 4
69.18261 4
69.21443 4
69.24302 4
69.27299 4
69.30575 4
69.3375 4
69.36814 4
69.40047 4
69.42912 4
69.45962 4
69.49295 4
69.52161 4
69.55212 4
69.58546 4
69.61848 4
69.65182 4
69.6828 4
69.71613 4
69.74947 4
69.78281 4
69.81252 4
69.84418 4
69.87382 4
69.90564 4
69.93621 4
69.96853 4
70.00186 4
70.03519 4
70.06853 4
70.09822 4
70.12901 4
70.16235 4
70.19568 4
70.22806 4
70.26115 4
70.29448 4
70.32738 4
70.35978 4
70.39158 4
70.4229 4
70.45319 4
70.48226 4
70.51339 4
70.54672 4
70.5772 4
70.6103 4
70.64363 4
70.67696 4
70.70676 4
70.73726 4
70.7673 4
70.79859 4
70.83192 4
70.8637 4
70.89703 4
70.92849 4
70.96085 4
70.99418 4
71.02751 4
71.06084 4
71.09104 4
71.12227 4
71.15266 4
71.18341 4
71.21349 4
71.24217 4
71.27551 4
71.30518 4
71.33744 4
71.37012 4
71.39946 4
71.43114 4
71.46104 4
71.48991 4
71.52068 4
71.55095 4
71.58197 4
71.61063 4
71.64008 4
71.67016 4
71.70068 4
71.734 4
71.76548 4
71.79628 4
71.82703 4
71.85765 4
71.88747 4
71.91786 4
71.94752 4
71.97667 4
72.00974 4
72.04308 4
72.07294 4
72.10599 4
72.13736 4
72.16753 4
72.20036 4
72.2337 4
72.26703 4
72.30036 4
72.33369 4
72.36398 4
72.39732 4
72.42776 4
72.45659 4
72.48665 4
72.51998 4
72.54913 4
72.58246 4
72.61367 4
72.647 4
72.67874 4
72.71107 4
72.73935 4
72.77068 4
72.80401 4
72.83336 4
72.86564 4
72.89897 4
72.92956 4
72.95852 4
72.98867 4
73.01894 4
73.05106 4
73.08439 4
73.11772 4
73.15105 4
73.18184 4
73.21517 4
73.2485 4
73.28184 4
73.31517 4
73.34797 4
73.3813 4
73.41286 4
73.44588 4
73.47755 4
73.5091 4
73.53937 4
73.57033 4
73.60182 4
73.6335 4
73.66525 4
73.69523 4
73.72749 4
73.75675 4
73.78595 4
73.81657 4
73.8499 4
73.87996 4
73.91037 4
73.94158 4
73.97492 4
74.00593 4
74.03555 4
74.06501 4
74.0959 4
74.12561 4
74.15894 4
74.18877 4
74.21958 4
74.25112 4
74.28445 4
74.31779 4
74.34994 4
74.38313 4
74.41236 4
74.43997 4
74.46952 4
74.50056 4
74.52971 4
74.55885 4
74.58908 4
74.61932 4
74.65041 4
74.68073 4
74.71008 4
74.74033 4
74.77106 4
74.8015 4
74.83199 4
74.86504 4
74.89502 4
74.92514 4
74.95847 4
74.99055 4
75.02092 4
75.05231 4
75.08192 4
75.11354 4
75.14413 4
75.17747 4
75.20925 4
75.24171 4
75.27203 4
75.30315 4
75.33212 4
75.36174 4
75.39261 4
75.423 4
75.45596 4
75.48929 4
75.52262 4
75.55312 4
75.58646 4
75.61979 4
75.65313 4
75.68482 4
75.71815 4
75.75047 4
75.77971 4
75.812 4
75.84216 4
75.87291 4
75.90319 4
75.93235 4
75.9635 4
75.99683 4
76.02816 4
76.06149 4
76.09483 4
76.12783 4
76.16116 4
76.19393 4
76.22423 4
76.25756 4
76.28841 4
76.31759 4
76.34806 4
76.37775 4
76.41108 4
76.44109 4
76.47025 4
76.49877 4
76.52868 4
76.55993 4
76.59082 4
76.62323 4
76.65656 4
76.68617 4
76.71563 4
76.74657 4
76.7799 4
76.81143 4
76.84257 4
76.87315 4
76.90649 4
76.93779 4
76.96664 4
76.99654 4
77.02686 4
77.05582 4
77.08916 4
77.12249 4
77.15443 4
77.18777 4
77.21774 4
77.25107 4
77.28235 4
77.31204 4
77.34113 4
77.37326 4
77.40437 4
77.43571 4
77.46515 4
77.49612 4
77.52946 4
77.55964 4
77.58904 4
77.62238 4
77.65215 4
77.68092 4
77.71197 4
77.74181 4
77.77262 4
77.80152 4
77.83382 4
77.86715 4
77.89657 4
77.92793 4
77.95827 4
77.9873 4
78.02064 4
78.05035 4
78.08012 4
78.11128 4
78.14177 4
78.17313 4
78.20532 4
78.2365 4
78.26564 4
78.29511 4
78.32845 4
78.3569 4
78.38652 4
78.41875 4
78.4479 4
78.47766 4
78.50776 4
78.5378 4
78.57113 4
78.60087 4
78.63267 4
78.666 4
78.69631 4
78.72592 4
78.75694 4
78.78674 4
78.82007 4
78.85021 4
78.88179 4
78.91247 4
78.94395 4
78.9752 4
79.00624 4
79.03957 4
79.06971 4
79.09924 4
79.13024 4
79.16349 4
79.19223 4
79.22186 4
79.2514 4
79.28473 4
79.31439 4
79.34401 4
79.37379 4
79.40713 4
79.43942 4
79.46876 4
79.49954 4
79.53024 4
79.56358 4
79.59631 4
79.62891 4
79.66224 4
79.69086 4
79.71986 4
79.75107 4
79.78218 4
79.81336 4
79.84197 4
79.87169 4
79.90502 4
79.93425 4
79.96397 4
79.99656 4
80.02933 4
80.06266 4
80.09277 4
80.12363 4
80.15305 4
80.18198 4
80.21532 4
80.24714 4
80.28047 4
80.31012 4
80.34008 4
80.37136 4
80.40211 4
80.43544 4
80.46398 4
80.49316 4
80.52247 4
80.5558 4
80.5875 4
80.6169 4
80.64666 4
80.67604 4
80.7054 4
80.73462 4
80.76421 4
80.79613 4
80.82947 4
80.86148 4
80.8931 4
80.92435 4
80.95378 4
80.98368 4
81.01576 4
81.04411 4
81.07426 4
81.10616 4
81.13462 4
81.16795 4
81.2004 4
81.22929 4
81.26262 4
81.29353 4
81.32587 4
81.35738 4
81.38778 4
81.41784 4
81.45117 4
81.47962 4
81.50815 4
81.53884 4
81.56763 4
81.59853 4
81.62884 4
81.66217 4
81.69077 4
81.72086 4
81.75175 4
81.78508 4
81.81635 4
81.84969 4
81.87862 4
81.91196 4
81.94196 4
81.975 4
82.00572 4
82.03905 4
82.07141 4
82.10127 4
82.13046 4
82.16062 4
82.19395 4
82.22458 4
82.25731 4
82.29042 4
82.3225 4
82.35342 4
82.38377 4
82.41521 4
82.44443 4
82.47715 4
82.51048 4
82.54032 4
82.57013 4
82.59943 4
82.63251 4
82.66397 4
82.69453 4
82.72583 4
82.75692 4
82.79025 4
82.82298 4
82.85213 4
82.88277 4
82.91611 4
82.94667 4
82.97581 4
83.00549 4
83.03738 4
83.07072 4
83.10041 4
83.13242 4
83.16576 4
83.19655 4
83.22988 4
83.25927 4
83.28954 4
83.31946 4
83.34917 4
83.37815 4
83.40771 4
83.43731 4
83.46671 4
83.49621 4
83.52521 4
83.55707 4
83.58793 4
83.61763 4
83.65096 4
83.68127 4
83.7146 4
83.7434 4
83.7729 4
83.80441 4
83.83774 4
83.87107 4
83.90142 4
83.9316 4
83.96333 4
83.99597 4
84.02448 4
84.05781 4
84.08759 4
84.12093 4
84.15427 4
84.18378 4
84.21294 4
84.24627 4
84.2796 4
84.30808 4
84.34121 4
84.37051 4
84.40081 4
84.4306 4
84.46394 4
84.49311 4
84.52644 4
84.5583 4
84.58755 4
84.6207 4
84.65403 4
84.68736 4
84.7207 4
84.75299 4
84.78632 4
84.81622 4
84.8457 4
84.87507 4
84.90841 4
84.94174 4
84.96976 4
84.99989 4
85.03253 4
85.06333 4
85.09283 4
85.12531 4
85.15536 4
85.18483 4
85.21816 4
85.2515 4
85.28097 4
85.31192 4
85.34113 4
85.37147 4
85.40084 4
85.43278 4
85.46234 4
85.49213 4
85.52115 4
85.55169 4
85.58166 4
85.61152 4
85.64433 4
85.674 4
85.70657 4
85.73862 4
85.77195 4
85.80398 4
85.8341 4
85.86385 4
85.8946 4
85.92793 4
85.95682 4
85.98631 4
86.01859 4
86.04916 4
86.07991 4
86.11324 4
86.14351 4
86.17384 4
86.2033 4
86.23528 4
86.26329 4
86.29276 4
86.3261 4
86.35943 4
86.39276 4
86.42262 4
86.45596 4
86.48541 4
86.51865 4
86.55121 4
86.58046 4
86.60966 4
86.64228 4
86.67231 4
86.70173 4
86.72972 4
86.76305 4
86.79251 4
86.82457 4
86.85563 4
86.88896 4
86.91954 4
86.94907 4
86.97903 4
87.00776 4
87.04037 4
87.07014 4
87.10348 4
87.13681 4
87.16719 4
87.20052 4
87.22903 4
87.25835 4
87.28709 4
87.31756 4
87.3457 4
87.37769 4
87.41013 4
87.43879 4
87.46709 4
87.50037 4
87.52986 4
87.56319 4
87.59174 4
87.62424 4
87.65327 4
87.68484 4
87.71818 4
87.75027 4
87.78239 4
87.81152 4
87.84054 4
87.87387 4
87.90455 4
87.93788 4
87.9671 4
87.99671 4
88.02728 4
88.0568 4
88.08993 4
88.12326 4
88.15214 4
88.18133 4
88.20914 4
88.24248 4
88.27346 4
88.30154 4
88.33113 4
88.36021 4
88.3905 4
88.41988 4
88.44963 4
88.48238 4
88.51264 4
88.54173 4
88.57355 4
88.60688 4
88.63632 4
88.6673 4
88.69749 4
88.72723 4
88.75817 4
88.78819 4
88.82014 4
88.85202 4
88.88048 4
88.91381 4
88.9422 4
88.97192 4
89.00367 4
89.03539 4
89.06488 4
89.09821 4
89.12792 4
89.15761 4
89.1872 4
89.21612 4
89.24771 4
89.27901 4
89.30823 4
89.33713 4
89.36916 4
89.39794 4
89.42813 4
89.45738 4
89.49072 4
89.52405 4
89.55451 4
89.58321 4
89.61324 4
89.64658 4
89.67654 4
89.7071 4
89.73767 4
89.771 4
89.8015 4
89.83044 4
89.85934 4
89.89087 4
89.9242 4
89.95364 4
89.98592 4
90.01836 4
90.04702 4
90.08035 4
90.1095 4
90.13839 4
90.17172 4
90.20171 4
90.23283 4
90.26485 4
90.29559 4
90.32735 4
90.35696 4
90.3903 4
90.41805 4
90.44804 4
90.47862 4
90.50694 4
90.53541 4
90.56526 4
90.59859 4
90.63193 4
90.66359 4
90.69666 4
90.72564 4
90.75508 4
90.78369 4
90.81242 4
90.84173 4
90.87065 4
90.90398 4
90.93471 4
90.96377 4
90.99296 4
91.02252 4
91.05585 4
91.08691 4
91.12025 4
91.15358 4
91.18378 4
91.21365 4
91.24348 4
91.27681 4
91.3074 4
91.33832 4
91.37029 4
91.40136 4
91.43149 4
91.4611 4
91.49037 4
91.51898 4
91.5487 4
91.58203 4
91.61089 4
91.64422 4
91.6731 4
91.70295 4
91.73315 4
91.76202 4
91.79059 4
91.82392 4
91.8531 4
91.88136 4
91.91469 4
91.94459 4
91.97428 4
92.00407 4
92.03741 4
92.0672 4
92.10053 4
92.13132 4
92.15993 4
92.18983 4
92.21812 4
92.25146 4
92.28251 4
92.31148 4
92.34322 4
92.37417 4
92.40431 4
92.43529 4
92.46466 4
92.49435 4
92.52286 4
92.55619 4
92.58744 4
92.62024 4
92.65357 4
92.6869 4
92.71615 4
92.74948 4
92.77918 4
92.81103 4
92.84344 4
92.87547 4
92.90574 4
92.93907 4
92.9724 4
93.00574 4
93.03794 4
93.07127 4
93.10407 4
93.13615 4
93.16949 4
93.19879 4
93.23212 4
93.26147 4
93.29374 4
93.32707 4
93.3573 4
93.39063 4
93.41933 4
93.45085 4
93.47993 4
93.51165 4
93.54427 4
93.57719 4
93.60957 4
93.63911 4
93.67174 4
93.70035 4
93.73368 4
93.76187 4
93.79437 4
93.82651 4
93.85984 4
93.89166 4
93.92183 4
93.95047 4
93.981 4
94.01129 4
94.04093 4
94.07005 4
94.10339 4
94.13672 4
94.16669 4
94.19772 4
94.22932 4
94.26019 4
94.29032 4
94.31975 4
94.35308 4
94.38159 4
94.41086 4
94.44419 4
94.47363 4
94.50498 4
94.53622 4
94.56579 4
94.59607 4
94.62941 4
94.65846 4
94.68994 4
94.72327 4
94.7551 4
94.78811 4
94.81963 4
94.85005 4
94.88174 4
94.91432 4
94.94411 4
94.97347 4
95.00482 4
95.03477 4
95.06605 4
95.09809 4
95.12699 4
95.15651 4
95.18625 4
95.21532 4
95.2468 4
95.27794 4
95.30788 4
95.34122 4
95.37124 4
95.40224 4
95.43558 4
95.46693 4
95.49927 4
95.52818 4
95.55922 4
95.58938 4
95.62028 4
95.65338 4
95.68671 4
95.71867 4
95.74781 4
95.78113 4
95.81446 4
95.84501 4
95.87424 4
95.90469 4
95.93536 4
95.9687 4
96.00143 4
96.03088 4
96.06023 4
96.09322 4
96.12308 4
96.15397 4
96.18279 4
96.21257 4
96.2459 4
96.27924 4
96.31258 4
96.34224 4
96.37524 4
96.4085 4
96.44183 4
96.47517 4
96.50649 4
96.53613 4
96.56947 4
96.59908 4
96.63172 4
96.66341 4
96.69389 4
96.72514 4
96.75565 4
96.78621 4
96.81746 4
96.85065 4
96.88142 4
96.91208 4
96.94541 4
96.97581 4
97.00915 4
97.03845 4
97.06982 4
97.09979 4
97.12923 4
97.1605 4
97.19 4
97.21867 4
97.24886 4
97.27805 4
97.3083 4
97.33759 4
97.37093 4
97.40179 4
97.43291 4
97.46625 4
97.4948 4
97.52581 4
97.55914 4
97.58768 4
97.61728 4
97.64699 4
97.67746 4
97.70667 4
97.73975 4
97.77308 4
97.80289 4
97.83285 4
97.86242 4
97.89286 4
97.92619 4
97.95844 4
97.98841 4
98.01752 4
98.04688 4
98.07709 4
98.11022 4
98.139 4
98.17233 4
98.20193 4
98.23162 4
98.26495 4
98.29394 4
98.32289 4
98.35354 4
98.38524 4
98.4143 4
98.44654 4
98.47948 4
98.50877 4
98.54134 4
98.57148 4
98.60287 4
98.63372 4
98.66705 4
98.69663 4
98.72569 4
98.757 4
98.78738 4
98.82072 4
98.84991 4
98.88055 4
98.91101 4
98.94292 4
98.97301 4
99.00635 4
99.03968 4
99.06968 4
99.09931 4
99.13006 4
99.16339 4
99.19319 4
99.22653 4
99.25753 4
99.29086 4
99.32273 4
99.35125 4
99.38193 4
99.41526 4
99.44859 4
99.48064 4
99.51073 4
99.5396 4
99.56879 4
99.60151 4
99.63369 4
99.6636 4
99.69485 4
99.72696 4
99.76027 4
99.79094 4
99.82291 4
99.85291 4
99.88226 4
99.9148 4
99.94471 4
99.97517 4
100.0085 4
100.0386 4
100.0719 4
100.1043 4
100.1343 4
100.1655 4
100.195 4
100.2248 4
100.2558 4
100.2845 4
100.3166 4
100.3499 4
100.3794 4
100.4099 4
100.4428 4
100.4723 4
100.5031 4
100.5365 4
100.5653 4
100.5947 4
100.6243 4
100.655 4
100.6865 4
100.7159 4
100.7456 4
100.7758 4
100.8091 4
100.8394 4
100.8716 4
100.905 4
100.9367 4
100.966 4
100.9956 4
101.0289 4
101.058 4
101.0872 4
101.1205 4
101.1538 4
101.1838 4
101.213 4
101.243 4
101.2763 4
101.3046 4
101.3337 4
101.3646 4
101.398 4
101.427 4
101.4581 4
101.4873 4
101.52 4
101.5513 4
101.5846 4
101.6179 4
101.6484 4
101.6779 4
101.7079 4
101.7381 4
101.7693 4
101.8027 4
101.8322 4
101.8617 4
101.8951 4
101.9255 4
101.9589 4
101.9922 4
102.0255 4
102.0571 4
102.0865 4
102.1164 4
102.1445 4
102.1778 4
102.2112 4
102.24 4
102.2695 4
102.3029 4
102.3303 4
102.3606 4
102.3919 4
102.4206 4
102.4515 4
102.4838 4
102.5139 4
102.5454 4
102.5748 4
102.6031 4
102.6353 4
102.6687 4
102.6989 4
102.7316 4
102.7635 4
102.7969 4
102.8302 4
102.8632 4
102.8945 4
102.9239 4
102.9562 4
102.9896 4
103.0187 4
103.048 4
103.0783 4
103.1077 4
103.1381 4
103.1697 4
103.2001 4
103.233 4
103.2617 4
103.2914 4
103.3239 4
103.3529 4
103.3818 4
103.4149 4
103.4433 4
103.4745 4
103.5052 4
103.5383 4
103.5677 4
103.5971 4
103.6276 4
103.6597 4
103.6895 4
103.7202 4
103.7511 4
103.7845 4
103.8134 4
103.8426 4
103.8757 4
103.9066 4
103.9361 4
103.9694 4
103.9996 4
104.0291 4
104.0606 4
104.0913 4
104.1208 4
104.1497 4
104.1817 4
104.2126 4
104.2442 4
104.2731 4
104.3057 4
104.3349 4
104.3644 4
104.395 4
104.4251 4
104.4576 4
104.4871 4
104.5174 4
104.5463 4
104.5771 4
104.6093 4
104.6392 4
104.6684 4
104.7017 4
104.7304 4
104.7615 4
104.792 4
104.8233 4
104.8565 4
104.8898 4
104.9223 4
104.9557 4
104.9867 4
105.017 4
105.0503 4
105.0805 4
105.1089 4
105.1385 4
105.1717 4
105.205 4
105.2342 4
105.2675 4
105.3006 4
105.3339 4
105.3628 4
105.3928 4
105.4241 4
105.4539 4
105.4844 4
105.5177 4
105.5508 4
105.5804 4
105.6115 4
105.6412 4
105.671 4
105.7044 4
105.7351 4
105.7648 4
105.7981 4
105.8294 4
105.8625 4
105.8933 4
105.9235 4
105.9552 4
105.9844 4
106.0153 4
106.0464 4
106.0756 4
106.1056 4
106.1351 4
106.1653 4
106.1986 4
106.2304 4
106.2625 4
106.2945 4
106.3247 4
106.358 4
106.3914 4
106.4223 4
106.4557 4
106.4848 4
106.5143 4
106.5445 4
106.5749 4
106.6048 4
106.6361 4
106.6674 4
106.6981 4
106.7315 4
106.7616 4
106.7906 4
106.8215 4
106.8543 4
106.8874 4
106.9174 4
106.9507 4
106.9797 4
107.0091 4
107.0399 4
107.0689 4
107.0988 4
107.1321 4
107.1607 4
107.1918 4
107.2209 4
107.2497 4
107.2824 4
107.3116 4
107.3437 4
107.3771 4
107.4104 4
107.4413 4
107.4747 4
107.504 4
107.5358 4
107.5653 4
107.5948 4
107.6243 4
107.6548 4
107.6867 4
107.72 4
107.7534 4
107.7867 4
107.82 4
107.85 4
107.8834 4
107.9167 4
107.95 4
107.9794 4
108.0094 4
108.0427 4
108.0743 4
108.104 4
108.1374 4
108.1664 4
108.1955 4
108.2262 4
108.2558 4
108.2863 4
108.3162 4
108.3465 4
108.3752 4
108.4051 4
108.4356 4
108.4689 4
108.4998 4
108.53 4
108.559 4
108.5897 4
108.6194 4
108.6501 4
108.6834 4
108.7168 4
108.7501 4
108.7834 4
108.8154 4
108.8487 4
108.882 4
108.9154 4
108.9444 4
108.9735 4
109.0069 4
109.0358 4
109.0659 4
109.0965 4
109.1271 4
109.1578 4
109.1879 4
109.2201 4
109.2534 4
109.2862 4
109.3192 4
109.3513 4
109.3812 4
109.4146 4
109.4478 4
109.4794 4
109.508 4
109.5376 4
109.5672 4
109.6001 4
109.6297 4
109.6628 4
109.6949 4
109.7282 4
109.7616 4
109.7949 4
109.8267 4
109.8584 4
109.8892 4
109.9196 4
109.9513 4
109.9821 4
110.0142 4
110.0435 4
110.0755 4
110.1088 4
110.1379 4
110.1691 4
110.2 4
110.2309 4
110.2637 4
110.2927 4
110.326 4
110.3593 4
110.3901 4
110.4234 4
110.4545 4
110.4843 4
110.5142 4
110.5434 4
110.5731 4
110.6053 4
110.6386 4
110.6711 4
110.7007 4
110.7341 4
110.7643 4
110.7976 4
110.8266 4
110.8599 4
110.889 4
110.9191 4
110.9525 4
110.985 4
111.0134 4
111.0429 4
111.0762 4
111.1046 4
111.1379 4
111.1697 4
111.2017 4
111.2345 4
111.2637 4
111.2938 4
111.3254 4
111.3555 4
111.3843 4
111.4146 4
111.4444 4
111.4739 4
111.5059 4
111.5392 4
111.5716 4
111.6023 4
111.6318 4
111.6651 4
111.695 4
111.7283 4
111.76 4
111.7933 4
111.8266 4
111.8557 4
111.889 4
111.9195 4
111.9496 4
111.981 4
112.0108 4
112.0398 4
112.0731 4
112.1023 4
112.134 4
112.1645 4
112.1947 4
112.226 4
112.2594 4
112.2924 4
112.321 4
112.3543 4
112.3848 4
112.4181 4
112.4514 4
112.4832 4
112.5118 4
112.5451 4
112.5752 4
112.6042 4
112.6376 4
112.6705 4
112.6996 4
112.7305 4
112.7599 4
112.7932 4
112.8229 4
112.8526 4
112.8823 4
112.9156 4
112.949 4
112.98 4
113.0118 4
113.0448 4
113.0776 4
113.1109 4
113.1422 4
113.175 4
113.2077 4
113.2372 4
113.2694 4
113.2995 4
113.3314 4
113.3621 4
113.3919 4
113.4232 4
113.453 4
113.4831 4
113.5134 4
113.5423 4
113.5756 4
113.605 4
113.6353 4
113.6686 4
113.6992 4
113.7326 4
113.7644 4
113.7965 4
113.8251 4
113.8584 4
113.8916 4
113.921 4
113.9515 4
113.9824 4
114.0157 4
114.0457 4
114.0771 4
114.1094 4
114.1411 4
114.1717 4
114.2047 4
114.2344 4
114.2678 4
114.2964 4
114.3297 4
114.3622 4
114.3955 4
114.4266 4
114.4573 4
114.4858 4
114.516 4
114.5461 4
114.5776 4
114.6085 4
114.6378 4
114.6665 4
114.6993 4
114.7326 4
114.766 4
114.7968 4
114.8278 4
114.8591 4
114.8915 4
114.9249 4
114.9563 4
114.9868 4
115.0185 4
115.0484 4
115.081 4
115.1131 4
115.1464 4
115.1798 4
115.2097 4
115.2384 4
115.2696 4
115.2993 4
115.3326 4
115.3621 4
115.3931 4
115.4237 4
115.4553 4
115.4886 4
115.5201 4
115.5499 4
115.5809 4
115.6142 4
115.6448 4
115.6744 4
115.7046 4
115.7379 4
115.7683 4
115.7986 4
115.8314 4
115.8617 4
115.8899 4
115.9196 4
115.9529 4
115.9835 4
116.0168 4
116.0499 4
116.0805 4
116.1126 4
116.1459 4
116.1761 4
116.2094 4
116.2415 4
116.2716 4
116.3046 4
116.3366 4
116.3665 4
116.3985 4
116.4306 4
116.4628 4
116.4919 4
116.5215 4
116.5523 4
116.5828 4
116.6162 4
116.6495 4
116.6823 4
116.714 4
116.7452 4
116.7748 4
116.8031 4
116.8361 4
116.8694 4
116.8992 4
116.9301 4
116.961 4
116.9901 4
117.0234 4
117.0529 4
117.0858 4
117.1174 4
117.1474 4
117.1807 4
117.214 4
117.2428 4
117.2761 4
117.3075 4
117.3378 4
117.3674 4
117.3975 4
117.4308 4
117.4617 4
117.4941 4
117.5251 4
117.558 4
117.5912 4
117.6206 4
117.6539 4
117.685 4
117.7183 4
117.7516 4
117.7837 4
117.817 4
117.8503 4
117.8789 4
117.9097 4
117.9403 4
117.9712 4
118.0019 4
118.0328 4
118.0649 4
118.0964 4
118.1297 4
118.1591 4
118.1905 4
118.2211 4
118.2539 4
118.2872 4
118.3188 4
118.348 4
118.3777 4
118.4077 4
118.4387 4
118.4712 4
118.5006 4
118.5339 4
118.5672 4
118.6006 4
118.6304 4
118.6603 4
118.6911 4
118.7215 4
118.7527 4
118.786 4
118.8172 4
118.8468 4
118.8768 4
118.9086 4
118.9385 4
118.9718 4
118.9997 4
119.033 4
119.0645 4
119.0943 4
119.1277 4
119.1567 4
119.1867 4
119.2191 4
119.2502 4
119.2794 4
119.309 4
119.3412 4
119.3699 4
119.4013 4
119.4313 4
119.4647 4
119.4968 4
119.5285 4
119.5586 4
119.5919 4
119.6248 4
119.6538 4
119.6832 4
119.7165 4
119.7469 4
119.7767 4
119.8079 4
119.8402 4
119.8702 4
119.9002 4
119.93 4
119.9631 4
119.9916 4
120.0202 4
120.0535 4
120.0868 4
120.1202 4
120.152 4
120.1853 4
120.2143 4
120.2457 4
120.277 4
120.3067 4
120.3394 4
120.3728 4
120.402 4
120.4354 4
120.4675 4
120.4981 4
120.5311 4
120.5645 4
120.5945 4
120.6276 4
120.6609 4
120.6915 4
120.7216 4
120.7516 4
120.7849 4
120.8179 4
120.8512 4
120.8829 4
120.9162 4
120.9461 4
120.979 4
121.0123 4
121.0422 4
121.0723 4
121.1016 4
121.1349 4
121.1661 4
121.1994 4
121.2327 4
121.2637 4
121.2971 4
121.3301 4
121.3587 4
121.3901 4
121.4204 4
121.453 4
121.4858 4
121.5182 4
121.548 4
121.5787 4
121.6119 4
121.6443 4
121.6762 4
121.7095 4
121.7375 4
121.7682 4
121.7979 4
121.8264 4
121.858 4
121.8878 4
121.9212 4
121.9512 4
121.9802 4
122.0091 4
122.0401 4
122.0734 4
122.1029 4
122.1324 4
122.1658 4
122.1967 4
122.2285 4
122.2619 4
122.2938 4
122.3228 4
122.3524 4
122.384 4
122.4167 4
122.4456 4
122.4747 4
122.5074 4
122.5408 4
122.5708 4
122.6019 4
122.6314 4
122.6612 4
122.6924 4
122.7239 4
122.7541 4
122.783 4
122.8163 4
122.8462 4
122.876 4
122.9093 4
122.9384 4
122.9694 4
123.002 4
123.0318 4
123.062 4
123.0918 4
123.1251 4
123.1547 4
123.188 4
123.2195 4
123.2529 4
123.2818 4
123.3127 4
123.3444 4
123.374 4
123.4029 4
123.4338 4
123.464 4
123.4931 4
123.5232 4
123.5566 4
123.5899 4
123.6208 4
123.6534 4
123.6838 4
123.7138 4
123.7471 4
123.7769 4
123.8076 4
123.8374 4
123.8703 4
123.9009 4
123.9333 4
123.9656 4
123.9957 4
124.0283 4
124.0573 4
124.0866 4
124.1167 4
124.1469 4
124.1769 4
124.2065 4
124.235 4
124.2659 4
124.297 4
124.3269 4
124.3574 4
124.387 4
124.4204 4
124.4537 4
124.4868 4
124.519 4
124.5489 4
124.5822 4
124.6155 4
124.6489 4
124.6814 4
124.7117 4
124.7428 4
124.7724 4
124.8057 4
124.8391 4
124.8688 4
124.8987 4
124.9289 4
124.9622 4
124.9913 4
125.0246 4
125.0546 4
125.0879 4
125.1191 4
125.1492 4
125.1788 4
125.2116 4
125.2434 4
125.2763 4
125.3063 4
125.3397 4
125.373 4
125.4063 4
125.436 4
125.4658 4
125.4991 4
125.5288 4
125.5617 4
125.5925 4
125.6249 4
125.658 4
125.6885 4
125.7218 4
125.7505 4
125.78 4
125.8113 4
125.8401 4
125.8735 4
125.9066 4
125.9373 4
125.9697 4
125.9986 4
126.0319 4
126.0636 4
126.0969 4
126.1303 4
126.1606 4
126.1901 4
126.219 4
126.2495 4
126.2801 4
126.3091 4
126.3396 4
126.3698 4
126.3981 4
126.4315 4
126.4613 4
126.4925 4
126.5258 4
126.5583 4
126.5896 4
126.6201 4
126.6532 4
126.6865 4
126.7199 4
126.7532 4
126.7817 4
126.8146 4
126.8447 4
126.8745 4
126.9055 4
126.9349 4
126.9678 4
126.9973 4
127.0258 4
127.0552 4
127.0852 4
127.1183 4
127.1517 4
127.1843 4
127.2174 4
127.2461 4
127.2762 4
127.3096 4
127.3412 4
127.3699 4
127.4013 4
127.4314 4
127.4634 4
127.4933 4
127.5238 4
127.5541 4
127.5845 4
127.6168 4
127.6462 4
127.6796 4
127.7084 4
127.7376 4
127.7689 4
127.8005 4
127.8301 4
127.8616 4
127.8922 4
127.9228 4
127.9561 4
127.9862 4
128.0163 4
128.0475 4
128.0771 4
128.11 4
128.1434 4
128.1765 4
128.2088 4
128.2387 4
128.2683 4
128.3012 4
128.3322 4
128.3611 4
128.3931 4
128.4264 4
128.4555 4
128.4873 4
128.5175 4
128.5509 4
128.5842 4
128.6148 4
128.6481 4
128.6777 4
128.7088 4
128.7419 4
128.7726 4
128.806 4
128.8343 4
128.8632 4
128.8945 4
128.9244 4
128.9546 4
128.9841 4
129.0175 4
129.0465 4
129.0766 4
129.1055 4
129.1363 4
129.1671 4
129.1995 4
129.2306 4
129.264 4
129.2955 4
129.3289 4
129.3622 4
129.3927 4
129.4215 4
129.4548 4
129.4882 4
129.5215 4
129.5535 4
129.5868 4
129.6166 4
129.6463 4
129.6789 4
129.7122 4
129.7456 4
129.7772 4
129.8065 4
129.8383 4
129.8666 4
129.8971 4
129.9304 4
129.9588 4
129.989 4
130.0223 4
130.0511 4
130.0803 4
130.1112 4
130.1434 4
130.1753 4
130.2071 4
130.2354 4
130.2688 4
130.3021 4
130.3311 4
130.3627 4
130.3961 4
130.4242 4
130.4565 4
130.4898 4
130.5231 4
130.5526 4
130.5844 4
130.6159 4
130.6453 4
130.6747 4
130.707 4
130.7404 4
130.7697 4
130.803 4
130.8352 4
130.864 4
130.8973 4
130.9288 4
130.9589 4
130.9897 4
131.0193 4
131.049 4
131.0823 4
131.1122 4
131.1444 4
131.1762 4
131.2068 4
131.2402 4
131.2686 4
131.2998 4
131.3331 4
131.3644 4
131.397 4
131.4272 4
131.4606 4
131.4906 4
131.5239 4
131.5566 4
131.59 4
131.6217 4
131.6511 4
131.6807 4
131.7125 4
131.7427 4
131.7757 4
131.8071 4
131.8395 4
131.8704 4
131.9006 4
131.9301 4
131.9603 4
131.9897 4
132.0205 4
132.05 4
132.0796 4
132.1082 4
132.1411 4
132.1744 4
132.2062 4
132.2395 4
132.2695 4
132.3009 4
132.3312 4
132.3609 4
132.3917 4
132.4221 4
132.4554 4
132.4888 4
132.5211 4
132.5544 4
132.5848 4
132.6181 4
132.6485 4
132.6772 4
132.7077 4
132.7391 4
132.7684 4
132.7997 4
132.833 4
132.8618 4
132.8927 4
132.922 4
132.9529 4
132.9846 4
133.0149 4
133.0442 4
133.0739 4
133.1041 4
133.1336 4
133.1649 4
133.1965 4
133.2271 4
133.2566 4
133.2884 4
133.3185 4
133.3515 4
133.3809 4
133.4139 4
133.447 4
133.4774 4
133.5061 4
133.5394 4
133.5728 4
133.6024 4
133.6358 4
133.665 4
133.6928 4
133.7235 4
133.754 4
133.7825 4
133.8128 4
133.8449 4
133.8783 4
133.9116 4
133.9424 4
133.9757 4
134.006 4
134.0376 4
134.0692 4
134.1025 4
134.1345 4
134.1678 4
134.198 4
134.2274 4
134.2562 4
134.2866 4
134.3161 4
134.3483 4
134.3816 4
134.4128 4
134.4439 4
134.4737 4
134.5071 4
134.5365 4
134.5679 4
134.6013 4
134.6304 4
134.6621 4
134.6939 4
134.7246 4
134.7579 4
134.7912 4
134.8206 4
134.8529 4
134.8821 4
134.9113 4
134.9417 4
134.9749 4
135.0051 4
135.0359 4
135.0689 4
135.0975 4
135.1308 4
135.1601 4
135.1891 4
135.2188 4
135.2521 4
135.2854 4
135.3188 4
135.3501 4
135.3794 4
135.4118 4
135.443 4
135.4733 4
135.5066 4
135.5373 4
135.5707 4
135.601 4
135.6332 4
135.6665 4
135.696 4
135.7267 4
135.7591 4
135.789 4
135.8194 4
135.8496 4
135.8798 4
135.9096 4
135.9423 4
135.9731 4
136.002 4
136.0353 4
136.0661 4
136.0977 4
136.1281 4
136.1578 4
136.187 4
136.2154 4
136.2479 4
136.2801 4
136.3095 4
136.3406 4
136.3739 4
136.4073 4
136.4399 4
136.4733 4
136.5038 4
136.5339 4
136.5624 4
136.5937 4
136.627 4
136.6584 4
136.6884 4
136.7182 4
136.7474 4
136.7779 4
136.8112 4
136.8412 4
136.8693 4
136.8997 4
136.9308 4
136.962 4
136.9953 4
137.0284 4
137.059 4
137.0882 4
137.1175 4
137.1499 4
137.1797 4
137.2121 4
137.2427 4
137.276 4
137.307 4
137.3368 4
137.3685 4
137.4003 4
137.4337 4
137.4634 4
137.4926 4
137.5259 4
137.5592 4
137.5886 4
137.6175 4
137.6472 4
137.6773 4
137.71 4
137.7433 4
137.7765 4
137.8056 4
137.8365 4
137.8699 4
137.9012 4
137.9345 4
137.9655 4
137.9946 4
138.0266 4
138.0565 4
138.0866 4
138.116 4
138.149 4
138.179 4
138.208 4
138.2375 4
138.2688 4
138.3016 4
138.3307 4
138.364 4
138.3974 4
138.4302 4
138.46 4
138.4918 4
138.5234 4
138.5534 4
138.5848 4
138.6147 4
138.6436 4
138.6734 4
138.7032 4
138.7365 4
138.7698 4
138.8031 4
138.8359 4
138.8645 4
138.8935 4
138.9226 4
138.956 4
138.9893 4
139.0181 4
139.0501 4
139.0828 4
139.111 4
139.1403 4
139.1726 4
139.2025 4
139.2325 4
139.2643 4
139.2934 4
139.324 4
139.355 4
139.3847 4
139.416 4
139.4476 4
139.4773 4
139.5107 4
139.5406 4
139.5722 4
139.6056 4
139.6368 4
139.6677 4
139.6981 4
139.7295 4
139.7605 4
139.7936 4
139.8269 4
139.8552 4
139.8865 4
139.9198 4
139.9483 4
139.9794 4
140.0108 4
140.042 4
140.0712 4
140.1006 4
140.134 4
140.1639 4
140.1931 4
140.2254 4
140.2581 4
140.2877 4
140.3171 4
140.3504 4
140.3806 4
140.4101 4
140.4433 4
140.4733 4
140.5037 4
140.537 4
140.5663 4
140.5996 4
140.6298 4
140.6629 4
140.6914 4
140.7247 4
140.7565 4
140.7874 4
140.819 4
140.8483 4
140.8805 4
140.9138 4
140.9437 4
140.9731 4
141.0064 4
141.0378 4
141.0677 4
141.0991 4
141.1324 4
141.1653 4
141.1951 4
141.225 4
141.255 4
141.2846 4
141.3139 4
141.3454 4
141.3787 4
141.4121 4
141.4407 4
141.4716 4
141.505 4
141.5383 4
141.5703 4
141.6037 4
141.6343 4
141.6646 4
141.6966 4
141.7299 4
141.7615 4
141.7923 4
141.8233 4
141.8542 4
141.8876 4
141.9166 4
141.9466 4
141.9769 4
142.0066 4
142.0363 4
142.0691 4
142.0988 4
142.1321 4
142.1621 4
142.1944 4
142.2253 4
142.255 4
142.2854 4
142.3181 4
142.3515 4
142.3825 4
142.4143 4
142.4476 4
142.4809 4
142.5121 4
142.5431 4
142.5757 4
142.609 4
142.6391 4
142.6725 4
142.7032 4
142.7366 4
142.7699 4
142.8032 4
142.8354 4
142.8651 4
142.8952 4
142.9277 4
142.9611 4
142.9918 4
143.0235 4
143.0556 4
143.0889 4
143.1211 4
143.1514 4
143.1817 4
143.2151 4
143.2484 4
143.2776 4
143.3106 4
143.3439 4
143.3772 4
143.4106 4
143.4439 4
143.4772 4
143.5106 4
143.5404 4
143.5737 4
143.607 4
143.6371 4
143.6684 4
143.701 4
143.7335 4
143.7668 4
143.7984 4
143.8285 4
143.8593 4
143.8911 4
143.9245 4
143.9554 4
143.9856 4
144.0181 4
144.0501 4
144.0834 4
144.1134 4
144.1441 4
144.1758 4
144.2064 4
144.2397 4
144.2724 4
144.3043 4
144.3376 4
144.3684 4
144.4018 4
144.4316 4
144.4609 4
144.4907 4
144.524 4
144.5574 4
144.5892 4
144.6192 4
144.6526 4
144.6837 4
144.717 4
144.7501 4
144.7824 4
144.8157 4
144.8446 4
144.878 4
144.9077 4
144.9379 4
144.9711 4
145.002 4
145.0353 4
145.0664 4
145.0976 4
145.1283 4
145.1575 4
145.1909 4
145.2242 4
145.2568 4
145.2896 4
145.3191 4
145.3524 4
145.385 4
145.4166 4
145.4491 4
145.4793 4
145.5126 4
145.5443 4
145.5776 4
145.6105 4
145.6428 4
145.6761 4
145.7094 4
145.7381 4
145.7678 4
145.7981 4
145.8314 4
145.8623 4
145.8951 4
145.9284 4
145.9604 4
145.9937 4
146.0229 4
146.0525 4
146.0821 4
146.115 4
146.1483 4
146.1816 4
146.2124 4
146.244 4
146.2773 4
146.3107 4
146.342 4
146.3739 4
146.4068 4
146.4401 4
146.4734 4
146.5068 4
146.5361 4
146.5694 4
146.6027 4
146.6361 4
146.6675 4
146.6973 4
146.7302 4
146.7633 4
146.7966 4
146.8299 4
146.8603 4
146.8937 4
146.927 4
146.9603 4
146.9931 4
147.0264 4
147.0596 4
147.089 4
147.1223 4
147.1521 4
147.1814 4
147.2111 4
147.2427 4
147.276 4
147.3067 4
147.3367 4
147.3681 4
147.4015 4
147.4348 4
147.466 4
147.4985 4
147.5289 4
147.5603 4
147.5936 4
147.6244 4
147.6563 4
147.686 4
147.7193 4
147.7527 4
147.7836 4
147.8151 4
147.8484 4
147.881 4
147.9143 4
147.9476 4
147.9776 4
148.0082 4
148.0395 4
148.0728 4
148.1036 4
148.1346 4
148.1679 4
148.2012 4
148.2346 4
148.2657 4
148.299 4
148.3323 4
148.3656 4
148.399 4
148.4278 4
148.4602 4
148.4936 4
148.5245 4
148.5578 4
148.5912 4
148.619 4
148.6485 4
148.6816 4
148.7149 4
148.7439 4
148.7772 4
148.8077 4
148.8382 4
148.8715 4
148.9025 4
148.9358 4
148.9692 4
148.9991 4
149.0324 4
149.0633 4
149.0943 4
149.1252 4
149.1549 4
149.1882 4
149.2191 4
149.25 4
149.2808 4
149.3121 4
149.3454 4
149.3788 4
149.4087 4
149.4383 4
149.468 4
149.5013 4
149.531 4
149.5633 4
149.5967 4
149.6267 4
149.66 4
149.6933 4
149.7255 4
149.7563 4
149.7883 4
149.8216 4
149.8549 4
149.8865 4
149.9191 4
149.9492 4
149.9825 4
150.0128 4
150.0447 4
150.0752 4
150.1085 4
150.1418 4
150.1752 4
150.2066 4
150.2365 4
150.2694 4
150.3028 4
150.332 4
150.3618 4
150.3951 4
150.4269 4
150.4602 4
150.493 4
150.5226 4
150.556 4
150.586 4
150.6193 4
150.6526 4
150.6856 4
150.7168 4
150.7477 4
150.781 4
150.8143 4
150.8477 4
150.8789 4
150.9114 4
150.9447 4
150.9748 4
151.0057 4
151.0386 4
151.0716 4
151.1049 4
151.1383 4
151.1685 4
151.1994 4
151.2301 4
151.2635 4
151.2968 4
151.3266 4
151.36 4
151.3923 4
151.4257 4
151.459 4
151.4923 4
151.5257 4
151.559 4
151.5923 4
151.6241 4
151.6564 4
151.6897 4
151.7195 4
151.7528 4
151.7836 4
151.8158 4
151.8491 4
151.8783 4
151.9116 4
151.9421 4
151.9754 4
152.0052 4
152.0367 4
152.07 4
152.1033 4
152.133 4
152.1618 4
152.195 4
152.2284 4
152.2614 4
152.2915 4
152.321 4
152.3543 4
152.3876 4
152.4204 4
152.4503 4
152.4837 4
152.5138 4
152.5472 4
152.579 4
152.6119 4
152.6415 4
152.6734 4
152.7067 4
152.7356 4
152.769 4
152.8023 4
152.8328 4
152.8661 4
