時間[s] タイヤの舵角[deg]
0 0
0.02 -1.3
0.05333333 -1.3
0.08666666 -1.3
0.12 -1.3
0.1512419 -1.3
0.1845752 -1.3
0.2163855 -1.3
0.2465771 -1.3
0.2745372 -1.3
0.3071367 -1.3
0.3363622 -1.3
0.3650478 -1.3
0.3955071 -1.3
0.4253673 -1.3
0.454071 -1.3
0.4840236 -1.3
0.5173569 -1.3
0.5460511 -1.3
0.5740162 -1.3
0.6073495 -1.3
0.6350659 -1.3
0.6663178 -1.3
0.6960859 -1.3
0.724435 -1.3
0.7577683 -1.3
0.7911016 -1.3
0.8191963 -1.3
0.8512607 -1.3
0.8845941 -1.3
0.9157333 -1.3
0.9490666 -1.3
0.9823999 -1.3
1.01256 -1.3
1.044479 -1.3
1.073807 -1.3
1.103163 -1.3
1.133419 -1.3
1.163388 -1.3
1.196721 -1.3
1.225279 -1.3
1.253855 -1.3
1.284614 -1.3
1.314034 -1.3
1.344249 -1.3
1.377583 -1.3
1.406429 -1.3
1.435111 -1.3
1.463329 -1.3
1.495295 -1.3
1.52586 -1.3
1.554172 -1.3
1.582893 -1.3
1.611067 -1.3
1.640144 -1.3
1.673477 -1.3
1.703551 -1.3
1.731435 -1.3
1.761803 -1.3
1.791904 -1.3
1.825238 -1.3
1.855931 -1.3
1.886948 -1.3
1.916321 -1.3
1.94482 -1.3
1.973708 -1.3
2.004143 -1.3
2.036466 -1.3
2.065605 -1.3
2.098938 -1.3
2.129074 -1.3
2.158811 -1.3
2.188603 -1.3
2.218843 -1.3
2.246851 -1.3
2.275989 -1.3
2.307007 -1.3
2.337542 -1.3
2.370106 -1.3
2.40344 -1.3
2.436773 -1.3
2.466447 -1.3
2.497098 -1.3
2.530432 -1.3
2.560694 -1.3
2.589245 -1.3
2.62076 -1.3
2.652442 -1.3
2.6821 -1.3
2.712665 -1.3
2.743515 -1.3
2.775067 -1.3
2.8084 -1.3
2.841734 -1.3
2.872563 -1.3
2.90486 -1.3
2.936959 -1.3
2.969929 -1.3
2.999787 -1.3
3.029027 -1.3
3.058746 -1.3
3.092079 -1.3
3.124631 -1.3
3.155513 -1.3
3.185457 -1.3
3.213275 -1.3
3.242049 -1.3
3.270293 -1.3
3.303626 -1.3
3.33209 -1.3
3.365423 -1.3
3.397753 -1.3
3.429895 -1.3
3.458097 -1.3
3.49143 -1.3
3.524244 -1.3
3.552862 -1.3
3.582392 -1.3
3.615103 -1.3
3.648436 -1.3
3.680028 -1.3
3.708292 -1.3
3.738942 -1.3
3.768373 -1.3
3.801707 -1.3
3.833732 -1.3
3.864679 -1.3
3.89442 -1.3
3.925725 -1.3
3.959054 -1.3
3.992387 -1.3
4.023405 -1.3
4.056381 -1.3
4.087701 -1.3
4.115662 -1.3
4.14411 -1.3
4.177444 -1.3
4.20516 -1.3
4.235259 -1.3
4.266932 -1.3
4.298347 -1.3
4.327182 -1.3
4.360214 -1.3
4.393547 -1.3
4.424958 -1.3
4.455078 -1.3
4.488411 -1.3
4.516943 -1.3
4.548589 -1.3
4.579465 -1.3
4.610457 -1.3
4.640461 -1.3
4.669378 -1.3
4.698263 -1.3
4.728274 -1.3
4.7567 -1.3
4.788854 -1.3
4.817955 -1.3
4.850231 -1.3
4.879852 -1.3
4.910671 -1.3
4.942133 -1.3
4.971925 -1.3
5.001341 -1.3
5.034138 -1.3
5.062749 -1.3
5.096082 -1.3
5.125238 -1.3
5.155466 -1.3
5.188799 -1.3
5.218676 -1.3
5.252009 -1.3
5.283294 -1.3
5.315207 -1.3
5.348109 -1.3
5.377632 -1.3
5.409968 -1.3
5.441933 -1.3
5.473241 -1.3
5.506574 -1.3
5.537011 -1.3
5.56489 -1.3
5.598224 -1.3
5.631557 -1.3
5.664891 -1.3
5.698224 -1.3
5.728839 -1.3
5.757776 -1.3
5.791109 -1.3
5.819181 -1.3
5.848903 -1.3
5.882236 -1.3
5.911933 -1.3
5.945267 -1.3
5.9786 -1.3
6.009004 -1.3
6.038054 -1.3
6.066187 -1.3
6.099521 -1.3
6.127737 -1.3
6.160079 -1.3
6.190629 -1.3
6.220408 -1.3
6.253742 -1.3
6.282796 -1.3
6.311699 -1.3
6.343513 -1.3
6.376846 -1.3
6.410179 -1.3
6.443512 -1.3
6.476838 -1.3
6.507346 -1.3
6.540538 -1.3
6.573872 -1.3
6.603343 -1.3
6.63196 -1.3
6.663513 -1.3
6.692824 -1.3
6.726157 -1.3
6.75949 -1.3
6.792824 -1.3
6.822693 -1.3
6.856026 -1.3
6.887113 -1.3
6.916265 -1.3
6.949446 -1.3
6.98278 -1.3
7.016113 -1.3
7.047529 -1.3
7.080863 -1.3
7.111151 -1.3
7.141682 -1.3
7.175015 -1.3
7.206487 -1.3
7.237493 -1.3
7.26572 -1.3
7.297475 -1.3
7.330808 -1.3
7.364141 -1.3
7.394444 -1.3
7.427778 -1.3
7.455734 -1.3
7.489067 -1.3
7.5224 -1.3
7.555734 -1.3
7.587682 -1.3
7.617704 -1.3
7.651038 -1.3
7.682016 -1.3
7.709114 -1.3
7.738204 -1.3
7.767171 -1.3
7.800505 -1.3
7.827822 -1.3
7.861155 -1.3
7.891233 -1.3
7.921857 -1.3
7.955191 -1.3
7.983381 -1.3
8.01392 -1.3
8.046028 -1.3
8.07423 -1.3
8.107564 -1.3
8.138655 -1.3
8.171988 -1.3
8.201841 -1.3
8.231949 -1.3
8.265283 -1.3
8.298615 -1.3
8.329238 -1.3
8.358356 -1.3
8.389651 -1.3
8.422984 -1.3
8.456318 -1.3
8.489651 -1.3
8.518588 -1.3
8.551785 -1.3
8.585118 -1.3
8.618452 -1.3
8.64774 -1.3
8.678474 -1.3
8.711674 -1.3
8.745007 -1.3
8.772767 -1.3
8.801062 -1.3
8.829924 -1.3
8.86066 -1.3
8.893993 -1.3
8.924717 -1.3
8.955109 -1.3
8.98499 -1.3
9.01822 -1.3
9.051554 -1.3
9.081322 -1.3
9.111029 -1.3
9.140189 -1.3
9.170013 -1.3
9.203346 -1.3
9.232541 -1.3
9.26039 -1.3
9.293724 -1.3
9.323764 -1.3
9.357097 -1.3
9.386267 -1.3
9.419036 -1.3
9.45237 -1.3
9.483105 -1.3
9.516438 -1.3
9.549689 -1.3
9.578646 -1.3
9.610005 -1.3
9.637641 -1.3
9.670975 -1.3
9.702923 -1.3
9.732969 -1.3
9.761414 -1.3
9.790928 -1.3
9.824261 -1.3
9.857226 -1.3
9.890475 -1.3
9.921643 -1.3
9.949712 -1.3
9.983046 -1.3
10.01478 -1.3
10.04661 -1.3
10.07607 -1.3
10.10917 -1.3
10.1425 -1.3
10.17583 -1.3
10.20577 -1.3
10.23457 -1.3
10.2638 -1.3
10.29713 -1.3
10.32984 -1.3
10.36118 -1.3
10.39161 -1.3
10.42409 -1.3
10.45743 -1.3
10.4883 -1.3
10.51872 -1.3
10.55159 -1.3
10.58492 -1.3
10.61825 -1.3
10.65045 -1.3
10.68207 -1.3
10.71092 -1.3
10.74152 -1.3
10.77485 -1.3
10.80397 -1.3
10.83514 -1.3
10.86848 -1.3
10.90129 -1.3
10.93463 -1.3
10.96253 -1.3
10.99313 -1.3
11.0223 -1.3
11.05564 -1.3
11.08897 -1.3
11.11843 -1.3
11.14707 -1.3
11.17804 -1.3
11.20761 -1.3
11.24094 -1.3
11.27249 -1.3
11.30583 -1.3
11.33573 -1.3
11.36623 -1.3
11.39957 -1.3
11.42895 -1.3
11.45723 -1.3
11.486 -1.3
11.51673 -1.3
11.55006 -1.3
11.5834 -1.3
11.61423 -1.3
11.64355 -1.3
11.67689 -1.3
11.71022 -1.3
11.74196 -1.3
11.7698 -1.3
11.80126 -1.3
11.83459 -1.3
11.86747 -1.3
11.89479 -1.3
11.92471 -1.3
11.95555 -1.3
11.98507 -1.3
12.0184 -1.3
12.05174 -1.3
12.08023 -1.3
12.11213 -1.3
12.14547 -1.3
12.1788 -1.3
12.20758 -1.3
12.23985 -1.3
12.27319 -1.3
12.30454 -1.3
12.33787 -1.3
12.36744 -1.3
12.39496 -1.3
12.42471 -1.3
12.45573 -1.3
12.48907 -1.3
12.52103 -1.3
12.5525 -1.3
12.58249 -1.3
12.61583 -1.3
12.64916 -1.3
12.6787 -1.3
12.70869 -1.3
12.73616 -1.3
12.76545 -1.3
12.79878 -1.3
12.82807 -1.3
12.85995 -1.3
12.89329 -1.3
12.92212 -1.3
12.95546 -1.3
12.98879 -1.3
13.02127 -1.3
13.04952 -1.3
13.07925 -1.3
13.11258 -1.3
13.14321 -1.3
13.17199 -1.3
13.2047 -1.3
13.23803 -1.3
13.27136 -1.3
13.3047 -1.3
13.33465 -1.3
13.36411 -1.3
13.39682 -1.3
13.43016 -1.3
13.46115 -1.3
13.49425 -1.3
13.52322 -1.3
13.55476 -1.3
13.58809 -1.3
13.6213 -1.3
13.65119 -1.3
13.68106 -1.3
13.71207 -1.3
13.7454 -1.3
13.77311 -1.3
13.80329 -1.3
13.83128 -1.3
13.86222 -1.3
13.89555 -1.3
13.92671 -1.3
13.95922 -1.3
13.9905 -1.3
14.01964 -1.3
14.05297 -1.3
14.0811 -1.3
14.11443 -1.3
14.14397 -1.3
14.17329 -1.3
14.20662 -1.3
14.23672 -1.3
14.26633 -1.3
14.2956 -1.3
14.32369 -1.3
14.35702 -1.3
14.39022 -1.3
14.42051 -1.3
14.4493 -1.3
14.47828 -1.3
14.51161 -1.3
14.54359 -1.3
14.5701 -1.3
14.60253 -1.3
14.63211 -1.3
14.66544 -1.3
14.69368 -1.3
14.72198 -1.3
14.75044 -1.3
14.78378 -1.3
14.81711 -1.3
14.84755 -1.3
14.87694 -1.3
14.90913 -1.3
14.93844 -1.3
14.97177 -1.3
15.00246 -1.3
15.03341 -1.3
15.06501 -1.3
15.0954 -1.3
15.12873 -1.3
15.16206 -1.3
15.1948 -1.3
15.22814 -1.3
15.25857 -1.3
15.29191 -1.3
15.32201 -1.3
15.35534 -1.3
15.38335 -1.3
15.41585 -1.3
15.44919 -1.3
15.48036 -1.3
15.51045 -1.3
15.54379 -1.3
15.57664 -1.3
15.60997 -1.3
15.6433 -1.3
15.67664 -1.3
15.70681 -1.3
15.74014 -1.3
15.77347 -1.3
15.80681 -1.3
15.83854 -1.3
15.87117 -1.3
15.90332 -1.3
15.93666 -1.3
15.96436 -1.3
15.99328 -1.3
16.0215 -1.3
16.05159 -1.3
16.08492 -1.3
16.11511 -1.3
16.146 -1.3
16.17623 -1.3
16.20911 -1.3
16.24244 -1.3
16.2725 -1.3
16.30511 -1.3
16.33682 -1.3
16.37015 -1.3
16.40349 -1.3
16.43414 -1.3
16.46748 -1.3
16.50038 -1.3
16.5306 -1.3
16.56393 -1.3
16.59726 -1.3
16.62741 -1.3
16.66074 -1.3
16.69093 -1.3
16.72427 -1.3
16.75553 -1.3
16.78566 -1.3
16.81735 -1.3
16.84707 -1.3
16.8804 -1.3
16.91103 -1.3
16.94437 -1.3
16.97459 -1.3
17.005 -1.3
17.03834 -1.3
17.0685 -1.3
17.10183 -1.3
17.1343 -1.3
17.16763 -1.3
17.20097 -1.3
17.22797 -1.3
17.2613 -1.3
17.29332 -1.3
17.32665 -1.3
17.35998 -1.3
17.39332 -1.3
17.42545 -1.3
17.45363 -1.3
17.48293 -1.3
17.51626 -1.3
17.54906 -1.3
17.57874 -1.3
17.61039 -1.3
17.64079 -1.3
17.67412 -1.3
17.70609 -1.3
17.73943 -1.3
17.76896 -1.3
17.79856 -1.3
17.83189 -1.3
17.86025 -1.3
17.89359 -1.3
17.9233 -1.3
17.95637 -1.3
17.9897 -1.3
18.02017 -1.3
18.04894 -1.3
18.0788 -1.3
18.10763 -1.3
18.14096 -1.3
18.1693 -1.3
18.19824 -1.3
18.22846 -1.3
18.26179 -1.3
18.29509 -1.3
18.32649 -1.3
18.35576 -1.3
18.38468 -1.3
18.41385 -1.3
18.44719 -1.3
18.47954 -1.3
18.50852 -1.3
18.53792 -1.3
18.56735 -1.3
18.60068 -1.3
18.62975 -1.3
18.65847 -1.3
18.68928 -1.3
18.71802 -1.3
18.75135 -1.3
18.77982 -1.3
18.80914 -1.3
18.84247 -1.3
18.87152 -1.3
18.90486 -1.3
18.93536 -1.3
18.96801 -1.3
19.00087 -1.3
19.03033 -1.3
19.06367 -1.3
19.09534 -1.3
19.12576 -1.3
19.15902 -1.3
19.18794 -1.3
19.22127 -1.3
19.25168 -1.3
19.27969 -1.3
19.31092 -1.3
19.3386 -1.3
19.37193 -1.3
19.40252 -1.3
19.43586 -1.3
19.46362 -1.3
19.49695 -1.3
19.53028 -1.3
19.56003 -1.3
19.59048 -1.3
19.6222 -1.3
19.65172 -1.3
19.68505 -1.3
19.71261 -1.3
19.74374 -1.3
19.77707 -1.3
19.80918 -1.3
19.84251 -1.3
19.87218 -1.3
19.90552 -1.3
19.937 -1.3
19.96818 -1.3
20.00151 -1.3
20.03122 -1.3
20.06013 -1.3
20.09009 -1.3
20.1197 -1.3
20.15304 -1.3
20.18206 -1.3
20.21539 -1.3
20.24647 -1.3
20.27778 -1.3
20.31111 -1.3
20.34283 -1.3
20.37159 -1.3
20.39958 -1.3
20.42982 -1.3
20.46316 -1.3
20.49431 -1.3
20.524 -1.3
20.5567 -1.3
20.58567 -1.3
20.619 -1.3
20.64794 -1.3
20.67637 -1.3
20.7097 -1.3
20.74304 -1.3
20.77637 -1.3
20.80916 -1.3
20.83881 -1.3
20.86917 -1.3
20.9025 -1.3
20.93583 -1.3
20.96852 -1.3
20.99844 -1.3
21.02651 -1.3
21.05984 -1.3
21.09318 -1.3
21.12254 -1.3
21.15471 -1.3
21.18435 -1.3
21.21359 -1.3
21.24693 -1.3
21.28026 -1.3
21.31203 -1.3
21.34536 -1.3
21.37406 -1.3
21.4074 -1.3
21.44073 -1.3
21.47228 -1.3
21.50475 -1.3
21.53277 -1.3
21.56611 -1.3
21.59506 -1.3
21.62732 -1.3
21.66 -1.3
21.69333 -1.3
21.72667 -1.3
21.75748 -1.3
21.78796 -1.3
21.8184 -1.3
21.8496 -1.3
21.88293 -1.3
21.91062 -1.3
21.94395 -1.3
21.97564 -1.3
22.00898 -1.3
22.04231 -1.3
22.07438 -1.3
22.10772 -1.3
22.13871 -1.3
22.16845 -1.3
22.20178 -1.3
22.23077 -1.3
22.26396 -1.3
22.29143 -1.3
22.32143 -1.3
22.35476 -1.3
22.38197 -1.3
22.41416 -1.3
22.44723 -1.3
22.48056 -1.3
22.5139 -1.3
22.54455 -1.3
22.57483 -1.3
22.6064 -1.3
22.63912 -1.3
22.67245 -1.3
22.70108 -1.3
22.72909 -1.3
22.7588 -1.3
22.78833 -1.3
22.82166 -1.3
22.85133 -1.3
22.88466 -1.3
22.91638 -1.3
22.94819 -1.3
22.98152 -1.3
23.01153 -1.3
23.04156 -1.3
23.0711 -1.3
23.10122 -1.3
23.13455 -1.3
23.16621 -1.3
23.19954 -1.3
23.22779 -1.3
23.25859 -1.3
23.29193 -1.3
23.32083 -1.3
23.35416 -1.3
23.38373 -1.3
23.41303 -1.3
23.44636 -1.3
23.47886 -1.3
23.51038 -1.3
23.53876 -1.3
23.56913 -1.3
23.60247 -1.3
23.6358 -1.3
23.66913 -1.3
23.70182 -1.3
23.73384 -1.3
23.76717 -1.3
23.79885 -1.3
23.83034 -1.3
23.86076 -1.3
23.89094 -1.3
23.92428 -1.3
23.95761 -1.3
23.98508 -1.3
24.01495 -1.3
24.04828 -1.3
24.08162 -1.3
24.11033 -1.3
24.14196 -1.3
24.17144 -1.3
24.2021 -1.3
24.23543 -1.3
24.26528 -1.3
24.29617 -1.3
24.32598 -1.3
24.35505 -1.3
24.38839 -1.3
24.42043 -1.3
24.45041 -1.3
24.47988 -1.3
24.50971 -1.3
24.54305 -1.3
24.57481 -1.3
24.60369 -1.3
24.63703 -1.3
24.67036 -1.3
24.7037 -1.3
24.73247 -1.3
24.7624 -1.3
24.79202 -1.3
24.82087 -1.3
24.85421 -1.3
24.88456 -1.3
24.91373 -1.3
24.94296 -1.3
24.97328 -1.3
25.00661 -1.3
25.03995 -1.3
25.07328 -1.3
25.1025 -1.3
25.13212 -1.3
25.16545 -1.3
25.19879 -1.3
25.22676 -1.3
25.26009 -1.3
25.29191 -1.3
25.32525 -1.3
25.35527 -1.3
25.38441 -1.3
25.41258 -1.3
25.44392 -1.3
25.47726 -1.3
25.51059 -1.3
25.54392 -1.3
25.57355 -1.3
25.60688 -1.3
25.64021 -1.3
25.6706 -1.3
25.70286 -1.3
25.73619 -1.3
25.7692 -1.3
25.80253 -1.3
25.8358 -1.3
25.8646 -1.3
25.89794 -1.3
25.92724 -1.3
25.96057 -1.3
25.98913 -1.3
26.01977 -1.3
26.0531 -1.3
26.08501 -1.3
26.11834 -1.3
26.15167 -1.3
26.18463 -1.3
26.21796 -1.3
26.2513 -1.3
26.28463 -1.3
26.31376 -1.3
26.34349 -1.3
26.3724 -1.3
26.40573 -1.3
26.43906 -1.3
26.47188 -1.3
26.50033 -1.3
26.53027 -1.3
26.55974 -1.3
26.59307 -1.3
26.62641 -1.3
26.65974 -1.3
26.68747 -1.3
26.71798 -1.3
26.75131 -1.3
26.78215 -1.3
26.81162 -1.3
26.84333 -1.3
26.87667 -1.3
26.91 -1.3
26.94331 -1.3
26.97517 -1.3
27.00415 -1.3
27.03669 -1.3
27.07002 -1.3
27.10336 -1.3
27.13493 -1.3
27.16827 -1.3
27.19764 -1.3
27.23097 -1.3
27.26257 -1.3
27.29221 -1.3
27.32295 -1.3
27.35248 -1.3
27.38581 -1.3
27.41481 -1.3
27.44472 -1.3
27.47463 -1.3
27.50549 -1.3
27.53882 -1.3
27.57152 -1.3
27.60445 -1.3
27.63779 -1.3
27.66982 -1.3
27.70315 -1.3
27.73501 -1.3
27.76571 -1.3
27.7967 -1.3
27.83003 -1.3
27.86337 -1.3
27.89195 -1.3
27.92155 -1.3
27.94981 -1.3
27.9792 -1.3
28.01253 -1.3
28.04344 -1.3
28.07678 -1.3
28.107 -1.3
28.13585 -1.3
28.16918 -1.3
28.19918 -1.3
28.2297 -1.3
28.26304 -1.3
28.29468 -1.3
28.32802 -1.3
28.36119 -1.3
28.39113 -1.3
28.42243 -0.4
28.4552 1.5
28.48854 1.5
28.51661 3.9
28.54866 6.95
28.58046 6.95
28.61149 10.25
28.64483 12.2
28.67414 12.2
28.70747 13.95
28.73728 13.95
28.77061 14.6
28.80395 14.6
28.8343 14.15
28.8651 14.15
28.89601 12.85
28.92673 12.85
28.96007 10
28.99038 7.2
29.01888 7.2
29.04835 4.55
29.07766 4.15
29.11099 4.15
29.14432 4.55
29.17382 4.55
29.20716 4.55
29.23746 4.55
29.2708 4.55
29.30376 4.55
29.33607 4.55
29.36882 4.55
29.39819 4.55
29.43152 4.55
29.45976 4.55
29.48945 4.55
29.51888 4.55
29.5495 4.55
29.58283 4.55
29.61617 4.55
29.6495 4.55
29.68068 4.55
29.71401 4.55
29.74735 4.55
29.77919 4.55
29.80981 4.55
29.8381 4.55
29.87079 4.55
29.90412 4.55
29.93745 4.55
29.96914 4.55
30.00248 4.55
30.03403 4.55
30.06737 4.55
30.09981 4.55
30.13182 4.55
30.16516 4.55
30.19494 4.55
30.22827 4.55
30.2616 4.55
30.29237 4.55
30.3257 4.55
30.35396 4.55
30.38729 4.55
30.41654 4.55
30.44551 4.55
30.47507 4.55
30.50636 4.55
30.53969 4.55
30.56855 4.55
30.59692 4.55
30.62815 4.55
30.66028 4.55
30.69362 4.55
30.72231 4.55
30.75174 4.55
30.78138 4.55
30.81191 4.55
30.84525 4.55
30.87782 4.55
30.9081 4.55
30.93902 4.55
30.96989 4.55
31.00322 4.55
31.03656 4.55
31.06989 4.55
31.10123 4.55
31.13208 4.55
31.16542 4.55
31.19543 4.55
31.22395 4.55
31.2528 4.55
31.28614 4.55
31.31947 4.55
31.35008 4.55
31.37947 4.55
31.4121 4.55
31.44143 4.55
31.47476 4.55
31.5058 4.55
31.5345 4.55
31.5666 4.55
31.59625 4.55
31.62959 4.55
31.65871 4.55
31.68743 4.55
31.71561 4.55
31.74808 4.55
31.78142 4.55
31.81031 4.55
31.8424 4.55
31.87573 4.55
31.90729 4.55
31.94063 4.55
31.97218 4.55
32.00414 4.55
32.03602 4.55
32.06666 4.55
32.09999 4.55
32.1296 4.55
32.16132 4.55
32.19024 4.55
32.22348 4.55
32.25682 4.55
32.28907 4.55
32.32006 4.55
32.34906 4.55
32.37947 4.55
32.4128 4.55
32.44613 4.55
32.47485 4.55
32.50506 4.55
32.53358 4.55
32.56692 4.55
32.5988 4.55
32.62951 4.55
32.66284 4.55
32.69521 4.55
32.72854 4.55
32.75982 4.55
32.78926 4.55
32.82039 4.55
32.84878 4.55
32.88211 4.55
32.91033 4.55
32.93936 4.55
32.97057 4.55
33.00011 4.55
33.03344 4.55
33.06358 4.55
33.09296 4.55
33.12211 4.55
33.15045 4.55
33.18378 4.55
33.21491 4.55
33.24429 4.55
33.27393 4.55
33.30394 4.55
33.33727 4.55
33.36881 4.55
33.3974 4.55
33.42756 4.55
33.46089 4.55
33.49422 4.55
33.5244 4.55
33.55774 4.55
33.58845 4.55
33.61796 4.55
33.65129 4.55
33.68463 4.55
33.71796 4.55
33.74654 4.55
33.77492 4.55
33.80825 4.55
33.83934 4.55
33.86893 4.55
33.89927 4.55
33.92868 4.55
33.96201 4.55
33.99204 4.55
34.02319 4.55
34.0548 4.55
34.08456 4.55
34.11789 4.55
34.14629 4.55
34.17963 4.55
34.20943 4.55
34.24076 4.55
34.2741 4.55
34.3047 4.55
34.3341 4.55
34.36644 4.55
34.39573 4.55
34.42906 4.55
34.46203 4.55
34.49484 4.55
34.52621 4.55
34.55954 4.55
34.59288 4.55
34.62312 4.55
34.65431 4.55
34.6837 4.55
34.71623 4.55
34.74957 4.55
34.7829 4.55
34.81251 4.55
34.84159 4.55
34.87405 4.55
34.90739 4.55
34.93867 4.55
34.96744 4.55
34.99943 4.55
35.0284 4.55
35.06174 4.55
35.09168 4.55
35.12352 4.55
35.15686 4.55
35.18623 4.55
35.21956 4.55
35.25289 4.55
35.28106 4.55
35.31011 4.55
35.34169 4.55
35.37502 4.55
35.40835 4.55
35.43768 4.55
35.47102 4.55
35.50435 4.55
35.53768 4.55
35.57101 4.55
35.60041 4.55
35.63143 4.55
35.66195 4.55
35.69528 4.55
35.7263 4.55
35.75657 4.55
35.78724 4.55
35.81875 4.55
35.85208 4.55
35.88293 4.55
35.91167 4.55
35.94256 4.55
35.97544 4.55
36.00877 4.55
36.0421 4.55
36.07185 4.55
36.10518 4.55
36.13851 4.55
36.17184 4.55
36.20502 4.55
36.23824 4.55
36.2683 4.55
36.30004 4.55
36.33337 4.55
36.36292 4.55
36.3914 4.55
36.42115 4.55
36.45232 4.55
36.48565 4.8
36.51462 5.65
36.54354 5.65
36.57687 7.2
36.60688 9.6
36.64022 9.6
36.66862 11.35
36.69849 12.65
36.7266 12.65
36.75694 13.1
36.79027 13.75
36.8191 13.75
36.84749 14.4
36.87682 14.4
36.90638 15.05
36.93972 16.15
36.97008 16.15
37.00341 17
37.03639 17.9
37.0673 17.9
37.10063 18.55
37.13396 19.4
37.16626 19.4
37.19674 20.3
37.22684 21.6
37.26017 21.6
37.29351 22.7
37.32537 24
37.35593 24
37.38527 24.9
37.41861 25.55
37.45194 25.55
37.48147 25.95
37.51263 26.65
37.54597 26.65
37.5793 26.85
37.60946 26.85
37.63922 26.85
37.6718 26.85
37.70513 26.85
37.73846 26.85
37.76755 26.85
37.79712 26.85
37.82866 26.85
37.85995 26.85
37.89328 26.85
37.92453 26.85
37.95589 26.85
37.98448 26.85
38.01403 26.85
38.04736 26.85
38.0807 26.85
38.10989 27.05
38.14044 27.05
38.17377 27.05
38.20711 27.05
38.2379 27.3
38.27123 27.3
38.30055 27.3
38.33066 27.5
38.36399 27.5
38.39468 27.5
38.42801 27.5
38.46021 27.5
38.49106 27.5
38.52439 27.5
38.55281 27.5
38.58414 27.5
38.61688 27.5
38.64806 27.5
38.68139 27.5
38.71211 27.7
38.74545 27.7
38.77509 27.7
38.80479 27.7
38.83812 27.95
38.86972 27.95
38.90305 27.95
38.93312 27.95
38.96338 27.95
38.99672 27.95
39.02928 27.95
39.0605 28.15
39.09383 28.15
39.12717 28.15
39.1605 28.15
39.18911 28.15
39.22089 28.15
39.24911 28.15
39.28093 28.15
39.31427 28.15
39.34692 28.15
39.37585 28.15
39.40918 28.15
39.43793 28.15
39.47126 28.15
39.50004 28.15
39.53057 28.15
39.55945 28.15
39.59278 28.15
39.62612 28.15
39.65945 28.15
39.68842 28.15
39.71759 28.15
39.75093 28.15
39.78426 28.15
39.81509 28.15
39.84489 28.15
39.87475 28.15
39.90808 28.15
39.94142 28.15
39.97217 28.15
40.00083 28.15
40.03201 28.15
40.06352 28.15
40.09686 28.15
40.1257 28.15
40.15552 28.15
40.18387 28.15
40.21374 28.15
40.24707 28.15
40.27713 28.15
40.30803 28.15
40.33887 28.15
40.37001 28.15
40.40334 28.15
40.43124 28.15
40.46049 28.15
40.48991 28.15
40.52122 28.15
40.55456 28.15
40.58522 28.15
40.61591 28.15
40.64494 28.15
40.67828 28.15
40.71161 28.15
40.74495 28.15
40.77391 27.7
40.80259 27.7
40.83244 27.05
40.86577 25.1
40.89595 25.1
40.92604 22.05
40.95616 18.3
40.98475 18.3
41.01809 15.9
41.04648 15.9
41.07919 13.3
41.10751 12.2
41.13729 12.2
41.17062 11.55
41.20152 11.35
41.2315 11.35
41.26483 11.35
41.29586 11.35
41.3292 11.35
41.3577 11.35
41.38702 11.35
41.42036 11.35
41.45369 11.35
41.48703 11.35
41.51684 11.35
41.54634 11.35
41.57803 11.35
41.61092 11.35
41.64425 11.35
41.67759 11.35
41.71 11.35
41.74121 11.35
41.77454 11.35
41.80788 11.35
41.83867 11.35
41.872 11.35
41.90472 11.35
41.93481 11.35
41.96815 11.35
41.99944 11.55
42.03078 11.55
42.06253 11.55
42.09247 11.75
42.1258 11.75
42.15536 11.75
42.18422 12
42.21566 12
42.24899 12
42.28232 12
42.31338 12
42.34671 12
42.38005 12
42.40993 12
42.44326 12
42.47655 12
42.50571 12
42.53686 12.2
42.56885 12.2
42.60218 12.2
42.63551 12.2
42.66866 12.2
42.70134 12.2
42.73468 12.2
42.76801 12.2
42.80134 12.45
42.83376 12.45
42.86697 12.65
42.89729 12.85
42.93062 12.85
42.95898 13.1
42.9904 13.1
43.02007 13.1
43.0534 13.1
43.08673 13.1
43.11607 13.1
43.14463 13.1
43.17485 13.1
43.20471 13.1
43.23804 13.1
43.26995 13.1
43.299 13.1
43.33194 13.1
43.3612 13.1
43.39454 13.1
43.42357 13.3
43.45341 13.3
43.4858 13.5
43.51635 13.5
43.54969 13.75
43.57894 13.95
43.61005 13.95
43.63873 14.6
43.66848 14.6
43.70182 14.6
43.7318 14.6
43.764 14.6
43.79733 14.6
43.82703 14.6
43.86037 14.6
43.8937 14.6
43.92438 14.6
43.95322 14.6
43.9856 14.6
44.01893 14.6
44.0509 14.6
44.07949 14.6
44.11063 14.6
44.14033 14.6
44.17366 14.6
44.20275 14.6
44.23418 14.6
44.26258 14.6
44.29213 14.6
44.32547 14.6
44.35633 14.6
44.38806 14.6
44.42139 14.6
44.45018 14.6
44.48351 14.6
44.51225 14.6
44.5413 14.6
44.57326 14.6
44.6056 14.6
44.63893 14.6
44.66861 14.6
44.70194 14.6
44.73408 14.6
44.76741 14.6
44.80074 14.6
44.83284 14.6
44.86332 14.6
44.89503 14.6
44.92433 14.6
44.95766 14.6
44.99049 14.6
45.01937 14.6
45.04868 14.6
45.08201 14.6
45.11535 14.6
45.14868 14.6
45.18201 14.6
45.21527 14.6
45.24615 14.6
45.27948 14.6
45.31282 14.6
45.34615 14.6
45.37948 14.6
45.41162 14.6
45.44495 14.6
45.47675 14.6
45.50637 14.6
45.53498 14.6
45.56593 14.6
45.59926 14.6
45.63112 14.6
45.66037 14.6
45.6937 14.6
45.72433 14.6
45.75767 14.6
45.78743 14.6
45.81822 14.6
45.84712 14.6
45.87641 14.6
45.90974 14.6
45.94065 14.6
45.96861 14.6
45.99815 14.6
46.03149 14.4
46.06482 14.4
46.09515 14.4
46.12848 14.4
46.16025 14.4
46.19188 14.4
46.22521 14.4
46.25503 14.4
46.28712 14.15
46.32045 13.75
46.3494 13.75
46.38273 12.85
46.41381 11.75
46.44284 10.7
46.47617 10.7
46.50951 10.7
46.54284 10.7
46.57333 10.7
46.60392 10.7
46.6358 10.7
46.66913 10.7
46.70246 10.7
46.7358 10.7
46.76913 10.7
46.79741 10.7
46.82677 10.7
46.8601 10.7
46.89259 10.7
46.92506 10.7
46.95486 10.7
46.98819 10.7
47.02152 10.7
47.05167 10.7
47.08201 10.7
47.1098 10.7
47.13895 10.7
47.17228 10.7
47.20561 10.7
47.23376 10.7
47.26424 10.7
47.29296 10.7
47.3263 10.7
47.35758 10.7
47.38673 10.7
47.41567 10.7
47.44901 10.7
47.48234 10.7
47.51232 10.7
47.54326 10.7
47.57659 10.7
47.60947 10.7
47.64281 10.7
47.67113 10.7
47.70079 10.7
47.73096 10.7
47.7603 10.7
47.79364 10.7
47.82307 10.7
47.85252 10.7
47.88585 10.7
47.91732 10.7
47.95065 10.7
47.98384 10.7
48.01562 10.7
48.04496 10.7
48.07822 10.7
48.11155 10.7
48.14489 10.7
48.17308 10.7
48.20232 10.7
48.23178 10.7
48.26511 10.7
48.29381 10.7
48.3268 10.7
48.35698 10.7
48.39031 10.7
48.42365 10.7
48.45464 10.7
48.48387 10.7
48.51457 10.7
48.54708 10.7
48.58041 10.7
48.61374 10.7
48.64384 10.7
48.67671 10.7
48.71004 10.7
48.74337 10.7
48.77671 9.8
48.80712 8.95
48.8392 8.95
48.86823 8.7
48.90157 8.7
48.93073 8.7
48.96059 8.7
48.99392 8.7
49.0252 8.7
49.05853 8.7
49.09186 8.7
49.12137 8.7
49.1547 8.7
49.18501 8.7
49.21834 8.7
49.24659 8.7
49.27918 8.7
49.30882 8.7
49.33844 8.7
49.37177 8.7
49.4051 8.7
49.43843 8.7
49.46921 8.7
49.49877 8.7
49.5321 8.7
49.56163 8.7
49.59496 8.7
49.62263 8.7
49.65332 8.7
49.68665 8.7
49.716 8.7
49.74432 8.7
49.77765 8.7
49.80589 8.7
49.83923 8.7
49.87147 8.7
49.90372 8.7
49.93706 8.7
49.96827 8.7
50.0016 8.7
50.03397 8.7
50.06731 8.7
50.09843 8.7
50.12861 8.7
50.16194 8.7
50.19527 8.7
50.22588 8.7
50.25786 8.7
50.28732 8.7
50.32065 8.7
50.35141 8.7
50.38388 8.7
50.41468 8.7
50.44441 8.7
50.47775 8.7
50.50708 8.7
50.54012 8.7
50.56861 8.7
50.59787 8.7
50.63121 8.7
50.66077 8.7
50.68931 8.7
50.71858 8.7
50.74961 8.7
50.78295 8.7
50.81275 8.7
50.84608 8.7
50.87761 8.7
50.90847 8.7
50.9418 8.7
50.97492 8.7
51.00826 8.7
51.04159 8.7
51.07223 8.7
51.10556 8.7
51.13349 8.7
51.16652 8.7
51.19544 8.7
51.22542 8.7
51.25875 8.7
51.29003 8.7
51.32026 8.7
51.35086 8.7
51.3842 8.7
51.41753 8.7
51.44729 8.7
51.4763 8.7
51.50427 8.7
51.53598 8.7
51.56931 8.7
51.60149 8.7
51.63405 8.7
51.66613 8.7
51.69542 8.7
51.72875 8.7
51.76152 8.7
51.79209 8.7
51.82229 8.7
51.85537 8.7
51.8887 8.7
51.9198 8.7
51.95156 8.7
51.98489 8.7
52.01822 8.7
52.05156 8.7
52.08107 8.7
52.11055 8.7
52.13876 8.7
52.16848 8.7
52.20182 8.7
52.23234 8.7
52.26321 8.7
52.29547 8.7
52.32617 8.7
52.3595 8.7
52.38958 8.7
52.41875 8.7
52.44712 8.7
52.47798 8.7
52.51131 8.7
52.54008 8.7
52.57095 8.7
52.60142 8.7
52.63055 8.7
52.66389 8.7
52.69722 8.95
52.72667 8.95
52.75527 8.95
52.78676 9.15
52.82009 9.15
52.84941 9.15
52.87798 9.35
52.90847 9.35
52.94013 9.35
52.97346 9.35
53.0068 9.35
53.04013 9.35
53.07346 9.35
53.10263 9.35
53.13596 9.6
53.16819 9.6
53.19788 9.6
53.22829 9.6
53.25816 9.6
53.29149 9.6
53.32405 9.6
53.35739 9.6
53.39007 9.6
53.42257 9.6
53.4559 9.6
53.48532 9.6
53.5167 9.6
53.5479 9.6
53.58096 9.6
53.6143 9.35
53.64763 9.15
53.67721 9.15
53.70505 9.15
53.73836 9.15
53.77169 9.15
53.80077 8.95
53.8307 8.95
53.86048 8.95
53.88967 8.95
53.923 8.95
53.95255 8.95
53.98112 8.95
54.01217 8.5
54.04172 8.3
54.07505 8.05
54.10634 8.05
54.13833 7.85
54.16987 7.85
54.19972 7.85
54.23306 7.85
54.26224 7.85
54.29232 7.85
54.32047 7.6
54.35155 7.6
54.38488 7.2
54.41417 6.75
54.44346 6.75
54.47464 6.55
54.50643 6.55
54.53976 6.3
54.57287 6.3
54.60605 6.3
54.63634 6.3
54.66968 6.3
54.70301 6.3
54.73252 6.3
54.76123 6.3
54.79456 6.3
54.82721 6.3
54.86054 6.3
54.88956 6.3
54.91943 6.3
54.94873 6.3
54.98088 6.3
55.01422 6.3
55.04492 6.3
55.07381 6.3
55.10715 6.3
55.14047 6.3
55.1738 6.3
55.20669 6.3
55.23736 6.3
55.26893 6.3
55.3002 6.3
55.33353 6.3
55.36424 6.3
55.39556 6.3
55.42825 6.3
55.46125 6.3
55.49458 6.3
55.52791 6.3
55.56023 6.3
55.59356 6.3
55.62211 6.3
55.65545 6.3
55.68878 6.3
55.72111 6.3
55.75445 6.3
55.78246 6.3
55.8158 6.3
55.84761 6.3
55.87658 6.3
55.90585 6.3
55.93918 6.3
55.97252 6.3
56.00451 6.3
56.03302 6.3
56.06263 6.3
56.09263 6.3
56.12596 6.3
56.15929 6.3
56.19046 6.3
56.21946 6.3
56.24903 6.3
56.28236 6.3
56.31242 6.3
56.34164 6.3
56.37091 6.3
56.4033 6.3
56.43663 6.3
56.46549 6.3
56.49883 6.3
56.53187 6.3
56.5616 6.3
56.59493 6.3
56.62827 6.3
56.65872 6.3
56.69205 6.3
56.72343 6.3
56.75677 6.3
56.78864 6.3
56.8196 6.3
56.84799 6.3
56.87842 6.3
56.91175 6.3
56.94117 6.3
56.97357 6.3
57.00583 6.3
57.03502 6.3
57.06835 6.3
57.10168 6.3
57.13352 6.3
57.16539 6.3
57.19604 6.3
57.22938 6.3
57.25805 6.3
57.28805 6.3
57.3185 6.3
57.34713 6.3
57.38047 6.3
57.40941 6.3
57.43844 6.3
57.47177 6.3
57.50511 6.3
57.53844 6.3
57.57177 6.3
57.60189 6.3
57.63274 6.3
57.66431 6.3
57.69765 6.3
57.73098 6.3
57.76205 6.3
57.79346 6.3
57.82324 6.3
57.85658 6.3
57.88991 6.3
57.92028 6.3
57.95173 6.3
57.98001 6.3
58.01334 6.3
58.0425 6.3
58.07438 6.3
58.10284 6.3
58.13441 6.3
58.16775 6.3
58.19789 6.3
58.22879 6.3
58.26202 6.3
58.29113 6.3
58.32446 6.3
58.3578 6.3
58.38889 6.3
58.4191 6.3
58.45243 6.3
58.48577 6.3
58.51466 6.3
58.54402 6.3
58.57655 6.3
58.60465 6.3
58.63798 6.3
58.66843 6.3
58.70049 6.3
58.7324 6.3
58.76539 6.3
58.79873 6.3
58.83206 6.3
58.86295 6.3
58.89628 6.3
58.92961 6.3
58.96294 6.3
58.99318 6.3
59.02539 6.3
59.05593 6.3
59.08503 6.3
59.11836 6.3
59.1517 6.3
59.18328 6.3
59.21661 6.3
59.24534 6.3
59.27868 6.3
59.30812 6.3
59.34145 6.3
59.37279 6.3
59.40306 6.3
59.43639 6.3
59.46691 6.3
59.50025 6.3
59.53358 6.3
59.5631 6.3
59.59643 6.3
59.62485 6.3
59.65441 6.3
59.68774 6.3
59.72063 6.3
59.75397 6.3
59.7873 6.3
59.8161 6.3
59.84723 6.3
59.88057 6.3
59.9139 6.3
59.94655 6.3
59.97732 6.3
60.00747 6.3
60.03674 6.3
60.07008 6.3
60.10004 6.3
60.12983 6.3
60.16113 6.3
60.18945 6.3
60.22279 6.3
60.25284 6.3
60.286 6.3
60.31543 6.3
60.3456 6.3
60.37894 6.3
60.41097 6.3
60.44431 6.3
60.47709 6.3
60.50744 6.3
60.54077 6.3
60.57411 6.3
60.60744 6.3
60.63674 6.3
60.66651 6.3
60.69984 6.3
60.73015 6.3
60.75999 6.3
60.79332 6.3
60.82666 6.3
60.85999 6.3
60.89332 6.3
60.92476 6.3
60.95395 6.3
60.98379 6.3
61.01713 6.3
61.04734 6.3
61.07898 6.3
61.10924 6.3
61.13926 6.3
61.17259 6.3
61.20153 6.3
61.23058 6.3
61.26391 6.3
61.29724 6.3
61.33057 6.3
61.36391 6.3
61.394 6.3
61.42651 6.3
61.45801 6.3
61.49134 6.3
61.51986 6.3
61.54922 6.3
61.57751 6.3
61.60951 6.3
61.64285 6.3
61.67183 6.3
61.70264 6.3
61.73597 6.3
61.76559 6.3
61.79893 6.3
61.83103 6.3
61.86152 6.3
61.89486 6.3
61.92445 6.3
61.95778 6.3
61.99111 6.3
62.02011 6.3
62.04998 6.3
62.08063 6.3
62.11396 6.3
62.14227 6.3
62.17207 6.3
62.20099 6.3
62.23432 6.3
62.26766 6.3
62.30099 6.3
62.32903 6.3
62.36236 6.3
62.39569 6.3
62.42903 6.3
62.4571 6.3
62.49043 6.3
62.52178 6.3
62.55279 6.3
62.58612 6.3
62.61718 6.3
62.64664 6.3
62.67589 6.3
62.70548 6.3
62.73882 6.3
62.76878 6.3
62.79792 6.3
62.82843 6.3
62.85907 6.3
62.8924 6.3
62.92273 6.3
62.95506 6.3
62.9861 6.3
63.01591 6.3
63.04924 6.3
63.08106 6.3
63.11244 6.3
63.14064 6.3
63.17056 6.3
63.2039 6.3
63.237 6.3
63.26923 6.3
63.30256 6.3
63.33081 6.3
63.36414 6.3
63.39272 6.3
63.4227 6.3
63.45131 6.3
63.48425 6.3
63.51758 6.3
63.54942 6.3
63.57941 6.3
63.60892 6.3
63.64182 6.3
63.67516 6.3
63.7076 6.3
63.73981 6.3
63.76851 6.3
63.79855 6.3
63.83188 6.3
63.86098 6.3
63.88958 6.3
63.92014 6.3
63.95347 6.3
63.9868 6.3
64.01559 6.3
64.04893 6.3
64.08226 6.3
64.11194 6.3
64.14527 6.3
64.1786 6.3
64.20805 6.3
64.24138 6.3
64.2714 6.3
64.30473 6.3
64.33544 6.3
64.36877 6.3
64.39986 6.3
64.4332 6.3
64.46654 6.3
64.4972 6.3
64.52637 6.3
64.55714 6.3
64.59047 6.3
64.6238 6.3
64.65714 6.3
64.68764 6.55
64.71654 6.55
64.74706 6.55
64.78039 6.55
64.81008 6.55
64.84109 6.55
64.87442 6.55
64.90344 6.55
64.93678 6.55
64.96569 6.55
64.99716 6.55
65.02535 6.55
65.05521 6.55
65.08855 6.55
65.12188 6.55
65.15076 6.55
65.18409 6.55
65.21742 6.55
65.25076 6.55
65.28027 6.55
65.3128 6.55
65.34132 6.55
65.37465 6.55
65.40798 6.55
65.44131 6.55
65.47434 6.55
65.5073 6.55
65.53828 6.55
65.57162 6.55
65.60363 6.55
65.63418 6.55
65.66751 6.55
65.69959 6.55
65.73293 6.55
65.76577 6.55
65.79485 6.55
65.82458 6.55
65.85474 6.55
65.88808 6.55
65.91653 6.55
65.94622 6.55
65.97529 6.55
66.00863 6.55
66.04196 6.55
66.07475 6.55
66.105 6.55
66.13407 6.55
66.16741 6.55
66.20074 6.55
66.22991 6.55
66.26122 6.55
66.29455 6.55
66.32399 6.55
66.35732 6.55
66.39066 6.55
66.42399 6.55
66.4558 6.55
66.48403 6.55
66.51736 6.55
66.54827 6.55
66.57697 6.55
66.6103 6.55
66.64309 6.55
66.67642 6.55
66.7074 6.55
66.74073 6.55
66.76949 6.55
66.80251 6.55
66.83584 6.55
66.86603 6.55
66.89555 6.55
66.92888 6.55
66.96221 6.55
66.99554 6.55
67.02558 6.55
67.05431 6.55
67.08389 6.55
67.11405 6.55
67.14738 6.55
67.17629 6.55
67.20594 6.55
67.23927 6.55
67.269 6.55
67.30234 6.55
67.33549 6.55
67.36541 6.55
67.39525 6.55
67.42451 6.55
67.45785 6.55
67.48647 6.55
67.5166 6.55
67.54896 6.55
67.58022 6.55
67.61355 6.55
67.64252 6.55
67.67259 6.55
67.70464 6.55
67.73798 6.55
67.77132 6.55
67.80019 6.55
67.83121 6.55
67.86154 6.55
67.89487 6.55
67.92821 6.55
67.96154 6.55
67.9895 6.55
68.01871 6.55
68.04946 6.55
68.08279 6.55
68.1108 6.55
68.14191 6.55
68.1714 6.55
68.20308 6.55
68.23641 6.55
68.26909 6.55
68.29878 6.55
68.32877 6.55
68.35783 6.55
68.39117 6.55
68.42413 6.55
68.45747 6.55
68.48597 6.55
68.5155 6.55
68.54884 6.55
68.57891 6.55
68.61014 6.55
68.63956 6.55
68.6729 6.55
68.70623 6.55
68.73801 6.55
68.76877 6.55
68.79812 6.55
68.83079 6.55
68.86412 6.55
68.89523 6.55
68.92631 6.55
68.95964 6.55
68.98881 6.55
69.02214 6.55
69.05132 6.55
69.08065 6.55
69.11101 6.55
69.14137 6.55
69.1747 6.55
69.20803 6.55
69.24136 6.55
69.2712 6.55
69.29893 6.55
69.33227 6.55
69.36106 6.55
69.39305 6.55
69.42305 6.55
69.45438 6.55
69.48772 6.55
69.52106 6.55
69.55103 6.55
69.5812 6.55
69.61075 6.55
69.64408 6.55
69.67384 6.55
69.70313 6.55
69.7327 6.55
69.76453 6.55
69.79787 6.55
69.82884 6.55
69.85893 6.55
69.89084 6.55
69.92091 6.55
69.95425 6.55
69.98605 6.55
70.01826 6.55
70.04803 6.55
70.07933 6.55
70.11266 6.55
70.146 6.55
70.17716 6.55
70.21049 6.55
70.23841 6.55
70.27174 6.55
70.30245 6.55
70.33578 6.55
70.36864 6.55
70.40051 6.55
70.43384 6.55
70.46442 6.55
70.49501 6.55
70.52425 6.75
70.55509 6.75
70.58842 6.75
70.61741 6.75
70.6485 6.75
70.67762 6.75
70.70718 6.75
70.74051 6.95
70.77084 6.95
70.79941 6.95
70.82989 6.95
70.85936 7.2
70.89269 7.2
70.92204 7.6
70.95531 7.85
70.98865 7.85
71.02116 8.05
71.05449 8.05
71.08752 8.05
71.1191 8.05
71.14924 8.05
71.17964 8.05
71.21297 8.05
71.24601 8.05
71.27501 8.05
71.30412 8.05
71.33551 8.05
71.36884 8.05
71.39975 8.05
71.43308 8.05
71.46642 8.05
71.49586 8.05
71.5292 7.85
71.55872 7.85
71.59205 7.85
71.6208 7.85
71.6505 7.85
71.68383 7.4
71.71391 7.4
71.74611 6.95
71.77533 6.1
71.80366 6.1
71.83699 5.65
71.86703 5.45
71.89977 5.45
71.93311 5.45
71.96644 5.45
71.99977 5.45
72.03169 5.45
72.06152 5.65
72.09101 5.65
72.11997 5.65
72.15331 5.65
72.18459 5.65
72.21514 5.65
72.24847 5.65
72.27909 5.65
72.31242 5.65
72.34371 5.65
72.37414 5.65
72.40455 5.45
72.43448 5.45
72.46781 5.2
72.49657 5.2
72.52619 5.2
72.55678 5.2
72.5886 5.2
72.62193 5.2
72.65527 5.2
72.68462 5.2
72.71725 4.8
72.74941 4.55
72.78275 4.35
72.81237 4.35
72.84277 4.35
72.87043 4.35
72.90376 4.15
72.9371 4.15
72.96686 4.15
73.00018 4.15
73.03293 3.9
73.06427 3.9
73.0976 3.9
73.12698 3.9
73.15628 3.9
73.18855 3.9
73.21858 3.9
73.25191 3.9
73.28465 3.9
73.31509 3.9
73.34515 3.9
73.37848 3.9
73.41181 3.9
73.43932 3.9
73.47066 3.9
73.504 3.9
73.53733 4.35
73.57066 5
73.60097 5
73.62977 5.65
73.66107 6.3
73.69223 6.3
73.72556 6.75
73.75496 7.2
73.78829 7.2
73.82054 7.2
73.85107 7.4
73.88441 7.4
73.91541 7.4
73.94463 7.4
73.97715 7.4
74.00649 7.4
74.03983 7.4
74.06841 7.4
74.09803 7.4
74.12865 7.4
74.16151 7.6
74.19484 7.6
74.22401 7.6
74.25428 7.85
74.28566 7.85
74.31521 7.85
74.34854 7.85
74.38187 7.85
74.41257 7.85
74.44452 7.85
74.47746 7.85
74.51079 7.85
74.54411 7.85
74.57335 7.85
74.60496 7.85
74.63622 8.05
74.66955 8.05
74.69965 8.05
74.73298 8.3
74.76465 8.3
74.79606 8.3
74.82939 8.3
74.86272 8.3
74.89606 8.3
74.92798 8.3
74.96131 8.3
74.99464 8.3
75.02426 8.7
75.05759 8.95
75.0882 8.95
75.11993 9.6
75.15326 10
75.18371 10
75.21413 10.45
75.24369 10.45
75.27249 11.1
75.30582 11.75
75.33704 11.75
75.36722 12.2
75.39773 12.65
75.43029 12.65
75.46362 12.85
75.49696 13.3
75.52631 13.3
75.55964 13.95
75.58807 14.85
75.62141 14.85
75.64914 15.7
75.67908 16.8
75.71242 16.8
75.7436 17.65
75.77693 18.55
75.81026 18.55
75.83882 19.4
75.87012 19.4
75.90158 20.05
75.93491 20.95
75.96513 20.95
75.99648 21.6
76.02942 22.5
76.06275 22.5
76.09608 22.9
76.12652 23.15
76.15725 23.15
76.18797 23.15
76.22028 23.15
76.25361 23.15
76.28288 22.9
76.31616 22.9
76.34949 22.9
76.37999 22.9
76.41332 22.9
76.44666 22.9
76.47614 22.9
76.50947 22.9
76.5428 22.9
76.57614 22.9
76.60947 22.9
76.63895 22.9
76.66788 22.9
76.69817 23.15
76.73151 23.15
76.7623 23.15
76.79069 23.15
76.81998 23.15
76.84844 23.15
76.88177 23.35
76.91341 23.35
76.94538 23.35
76.97871 23.55
77.01093 23.55
77.04426 23.8
77.07561 24
77.10692 24
77.13951 24.2
77.17062 24.45
77.20395 24.45
77.23238 24.9
77.26571 25.3
77.29404 25.3
77.32438 25.95
77.35771 26.85
77.38741 26.85
77.4154 27.5
77.44506 27.5
77.47388 28.15
77.50722 28.6
77.53563 28.6
77.56458 29.05
77.59791 29.45
77.63034 29.45
77.66367 29.9
77.69305 30.55
77.72275 30.55
77.75246 31.45
77.78236 31.45
77.8157 32.5
77.84695 33.2
77.87651 33.2
77.90984 34.7
77.93963 35.8
77.97296 35.8
78.00577 37.35
78.0391 38.4
78.0717 39.5
78.10033 39.5
78.13367 40.4
78.16306 41.5
78.19534 41.5
78.22648 41.9
78.25627 41.9
78.2896 42.35
78.32294 42.8
78.35514 42.8
78.38847 43.45
78.41927 44.3
78.45261 45
78.48126 45
78.51385 46.05
78.54453 46.05
78.57786 46.95
78.61119 47.6
78.6418 47.6
78.67091 48.05
78.70055 48.45
78.72928 48.45
78.76261 48.9
78.79107 48.9
78.82374 49.15
78.85537 49.35
78.88807 49.35
78.9214 49.35
78.95341 49.35
78.98185 49.35
79.01518 49.55
79.04478 49.8
79.07811 50
79.10647 50
79.1384 50.45
79.1676 50.45
79.19743 50.65
79.23077 50.65
79.2641 50.65
79.29336 50.65
79.32669 50.65
79.35673 50.65
79.39006 50.65
79.42136 50.65
79.45109 50.65
79.48442 50.65
79.51775 50.65
79.55109 50.65
79.58205 50.65
79.61402 50.65
79.64592 50.65
79.67635 50.65
79.70969 50.65
79.74023 50.65
79.76933 50.65
79.80151 50.65
79.83134 51.1
79.86468 51.55
79.89801 51.55
79.9307 51.95
79.95964 52.6
79.98868 52.6
80.02201 53.05
80.05226 53.7
80.08298 53.7
80.11632 53.95
80.14965 54.35
80.18298 54.35
80.21378 54.6
80.24561 54.8
80.27634 54.8
80.30584 55.25
80.33917 55.7
80.36773 55.7
80.40106 56.55
80.43143 57
80.46477 57
80.4981 57.65
80.52894 58.5
80.5575 58.5
80.59084 58.95
80.62411 58.95
80.65745 58.95
80.6874 58.95
80.72073 58.95
80.7489 58.95
80.78011 58.95
80.81344 58.95
80.84467 58.95
80.87467 58.95
80.90435 58.95
80.93687 58.95
80.97021 59.4
80.99901 60.5
81.0321 60.5
81.05976 61.8
81.09139 61.8
81.12473 62.65
81.15455 64.4
81.18788 64.4
81.21976 65.75
81.25069 67.25
81.28403 67.25
81.31563 68.35
81.34671 69.45
81.37528 69.45
81.40685 70.3
81.44018 71.2
81.46944 71.2
81.49977 71.85
81.5331 71.85
81.56165 72.5
81.59499 72.7
81.62394 72.7
81.65301 72.7
81.68483 72.7
81.71816 72.7
81.7515 72.7
81.78309 72.95
81.81642 72.95
81.84975 73.35
81.88108 74.45
81.91441 75.35
81.9446 75.35
81.97794 76.65
82.00744 76.65
82.04077 77.95
82.0741 78.85
82.10611 78.85
82.13944 79.95
82.17204 80.35
82.20235 80.35
82.23568 81.45
82.26631 83.4
82.2977 83.4
82.3272 86.05
82.35947 89.3
82.39281 89.3
82.42358 93.25
82.45692 96.3
82.48904 96.3
82.52238 99.8
82.55571 102.65
82.58446 102.65
82.61617 105.25
82.64544 108.1
82.67606 108.1
82.70939 111.6
82.74171 115.3
82.77303 115.3
82.80273 117.95
82.83607 117.95
82.8694 120.8
82.90141 122.75
82.93474 124.25
82.96352 124.25
82.99685 125.35
83.03018 125.35
83.06193 125.35
83.09032 125.35
83.12195 125.35
83.15224 125.35
83.18557 125.35
83.21645 125.35
83.24647 125.35
83.27915 125.35
83.30962 125.35
83.34295 125.35
83.37257 125.35
83.40591 125.35
83.43924 125.35
83.4687 125.35
83.50204 125.35
83.53075 125.35
83.56065 125.6
83.59311 125.6
83.62231 126
83.65564 126.9
83.68523 126.9
83.71352 127.55
83.74313 127.55
83.77162 128.4
83.80495 129.3
83.83829 129.3
83.87143 130.4
83.90182 131.05
83.93169 131.05
83.96503 131.9
83.99812 132.55
84.02615 132.55
84.05759 133
84.0895 133.9
84.12283 133.9
84.15146 135.4
84.18098 136.7
84.21 136.7
84.24088 138.05
84.27421 139.55
84.30564 139.55
84.33408 140.2
84.365 140.2
84.39478 141.1
84.42811 142.2
84.45878 142.2
84.48852 143.95
84.51875 146.35
84.54957 146.35
84.58291 148.95
84.61223 150.7
84.64111 150.7
84.67243 153.3
84.70104 153.3
84.73438 155.95
84.76229 157.9
84.7918 157.9
84.82085 159.65
84.8527 159.65
84.88603 160.55
84.91936 161.65
84.95198 161.65
84.98343 162.95
85.0125 164.45
85.04584 164.45
85.07918 166
85.11079 168.2
85.14148 168.2
85.17481 170.15
85.20815 172.35
85.24148 172.35
85.27034 174.3
85.30122 176.7
85.33142 176.7
85.36475 178.9
85.39809 181.5
85.42896 181.5
85.46229 183.45
85.49305 185.2
85.52638 185.2
85.55573 187.2
85.58906 188.5
85.61843 188.5
85.65176 189.35
85.6851 190.45
85.71339 192
85.74429 192
85.77326 192.65
85.80354 192.65
85.83687 193.3
85.86645 193.3
85.89661 193.3
85.92595 193.3
85.95586 193.3
85.98919 193.3
86.01997 193.5
86.0512 193.75
86.08295 193.75
86.11295 193.75
86.14628 193.75
86.17961 193.75
86.20789 193.75
86.23691 193.75
86.26638 193.75
86.29971 193.75
86.32762 193.75
86.36095 193.75
86.3924 193.75
86.42574 193.75
86.45907 193.75
86.48892 193.75
86.51775 193.75
86.5477 193.75
86.57904 193.95
86.61237 193.95
86.64028 193.95
86.67026 193.95
86.69803 193.95
86.7282 194.15
86.76153 194.4
86.79066 194.4
86.81886 194.6
86.8504 194.6
86.87859 195.05
86.91193 195.5
86.94049 195.5
86.97383 196.15
87.00591 197.25
87.03754 197.25
87.07087 197.65
87.1042 198.3
87.13662 198.3
87.16949 198.75
87.19841 199.2
87.23174 199.2
87.26062 199.2
87.29032 199.2
87.31946 199.2
87.35056 199.2
87.3839 199.2
87.41627 199.2
87.44868 199.2
87.48202 199.2
87.51203 199.4
87.54536 200.05
87.5787 201.15
87.60836 201.15
87.6376 202.5
87.67061 202.5
87.70394 203.55
87.7338 203.8
87.76437 203.8
87.79469 203.8
87.8235 203.8
87.85683 203.8
87.88553 203.8
87.91504 203.8
87.94837 203.8
87.98026 203.8
88.01359 203.8
88.04347 203.8
88.07593 203.8
88.10675 203.8
88.1359 203.8
88.16924 203.8
88.2002 203.8
88.23354 203.8
88.26456 203.8
88.2979 203.8
88.33123 203.8
88.36213 203.8
88.39546 203.8
88.42558 203.8
88.45892 204.2
88.49226 204.45
88.5203 204.45
88.55113 204.9
88.58038 204.9
88.60989 205.1
88.64323 205.1
88.6732 205.1
88.70192 205.3
88.73108 205.3
88.76022 205.75
88.79355 206.2
88.82446 206.2
88.85474 206.85
88.88284 206.85
88.91617 207.05
88.9495 207.3
88.98283 207.3
89.01515 207.3
89.04432 207.7
89.07323 207.7
89.10657 208.15
89.1399 208.8
89.17033 208.8
89.19848 209.45
89.22877 209.9
89.2621 209.9
89.29115 209.9
89.31945 209.9
89.35016 209.9
89.37862 209.9
89.41196 209.9
89.44 209.9
89.47334 209.9
89.50667 209.9
89.54 209.9
89.57333 209.9
89.60311 209.9
89.63199 209.9
89.66532 209.9
89.69414 209.9
89.72747 209.9
89.75981 209.9
89.79314 209.9
89.82163 209.9
89.85069 209.9
89.88402 209.9
89.91735 209.9
89.95068 209.9
89.98284 209.9
90.01115 209.9
90.04449 209.9
90.07782 209.9
90.10851 209.9
90.13696 209.9
90.16696 209.9
90.20029 209.9
90.23322 209.9
90.26481 209.9
90.29557 209.9
90.32873 209.9
90.36206 209.9
90.39364 209.9
90.42622 209.9
90.45432 209.9
90.48482 209.9
90.51815 209.9
90.54813 209.9
90.57686 209.9
90.60939 209.9
90.63909 209.9
90.67243 209.9
90.70576 209.9
90.73574 209.9
90.76398 209.9
90.79732 210.1
90.83065 210.1
90.86398 210.1
90.89407 210.1
90.92297 210.1
90.95419 210.1
90.98752 210.35
91.01567 211.2
91.049 211.2
91.07868 211.85
91.11201 212.5
91.14535 212.5
91.17593 212.95
91.2056 212.95
91.23441 213.4
91.26515 213.85
91.29848 213.85
91.32726 214.5
91.3563 214.95
91.38607 214.95
91.41781 215.8
91.45114 216.65
91.48217 216.65
91.5135 217.55
91.54683 218.4
91.57712 218.4
91.61045 218.2
91.63932 218.4
91.66786 218.4
91.69801 218.2
91.72973 218.2
91.76306 218.2
91.79547 218.2
91.82438 218.2
91.85352 218.2
91.88285 218.2
91.91618 218.2
91.94624 218.2
91.97957 218.2
92.00724 218.2
92.03824 218.2
92.07157 218.2
92.10375 218.2
92.13167 218.2
92.16489 218.2
92.19568 218.2
92.22902 218.2
92.26235 218.2
92.29392 218.2
92.32524 218.2
92.35646 218.2
92.38979 218.2
92.41982 218.2
92.45163 218.2
92.48147 218.2
92.51125 218.2
92.54458 218.2
92.57275 218.2
92.60428 218.2
92.63274 218.2
92.66267 218.2
92.696 218.2
92.72748 218.2
92.76081 218.4
92.79116 218.4
92.82075 218.4
92.85409 218.4
92.88219 218.4
92.91552 218.4
92.94686 218.4
92.97926 218.4
93.0126 218.4
93.04593 218.4
93.07662 218.4
93.10995 218.4
93.13852 218.4
93.17186 218.4
93.20519 218.4
93.23519 218.4
93.26778 218.4
93.29933 218.4
93.33266 218.4
93.36219 218.4
93.39124 218.4
93.42152 218.4
93.45248 218.4
93.48582 218.4
93.51915 218.4
93.55248 218.4
93.58341 218.4
93.6153 218.4
93.64864 218.4
93.68197 218.4
93.71465 218.4
93.74586 218.4
93.77576 218.4
93.8091 218.4
93.84089 218.4
93.87105 218.4
93.89928 218.4
93.92908 218.4
93.96241 218.4
93.99403 218.4
94.02736 218.4
94.05825 218.4
94.09158 218.4
94.12492 218.4
94.15522 218.4
94.18855 218.4
94.21624 218.4
94.24577 218.4
94.27911 218.4
94.30877 218.4
94.33961 218.4
94.36919 218.4
94.40073 218.4
94.43406 218.4
94.46365 218.4
94.49287 218.4
94.52084 218.4
94.55418 218.4
94.58751 218.4
94.62084 218.4
94.65107 218.4
94.6844 218.4
94.71774 218.4
94.75107 218.4
94.77882 218.4
94.80769 218.4
94.83579 218.4
94.86781 218.4
94.90114 218.4
94.93447 218.4
94.9678 218.4
95.00114 218.4
95.03447 218.4
95.0678 218.4
95.09697 218.4
95.1303 218.4
95.16077 218.4
95.18977 218.4
95.2231 218.4
95.25233 218.4
95.28066 218.4
95.31012 218.4
95.3402 218.4
95.37354 218.4
95.40308 218.4
95.43415 218.4
95.46672 218.4
95.49641 218.4
95.52975 218.4
95.56208 218.4
95.59216 218.4
95.62463 218.4
95.65797 218.4
95.69131 218.4
95.72032 218.4
95.75048 218.4
95.77995 218.4
95.80901 218.4
95.84235 218.4
95.87167 218.4
95.90324 218.4
95.93494 218.4
95.96303 218.4
95.99636 218.4
96.02969 218.4
96.06116 218.4
96.09279 218.4
96.12214 218.4
96.15547 218.2
96.18599 218.2
96.21468 218.2
96.24801 218.2
96.27659 218.2
96.30993 218.2
96.34171 218.2
96.37504 218.2
96.40379 218.2
96.43432 218.2
96.46765 218.2
96.49726 218.2
96.5276 218.2
96.56093 218.2
96.59249 218.2
96.62583 218.2
96.65526 218.2
96.68681 218.2
96.7158 218.2
96.74676 218.2
96.78009 217.55
96.80888 217.55
96.84222 215.8
96.87356 212.5
96.90348 212.5
96.93681 209.25
96.96564 203.8
96.99532 203.8
97.02861 199
97.06194 190.9
97.09528 190.9
97.12861 186.75
97.15862 181.95
97.1888 181.95
97.21771 180.2
97.25105 180.2
97.27984 180.2
97.30985 182.15
97.33783 182.15
97.36909 186.3
97.40242 191.1
97.43575 191.1
97.46909 197.65
97.50193 204.45
97.53132 204.45
97.56465 209.45
97.59509 213.6
97.62842 213.6
97.66154 217.35
97.69398 218.4
97.72731 218.4
97.76064 218.4
97.78907 218.4
97.8218 218.4
97.8512 218.4
97.88453 218.4
97.91599 218.4
97.94523 218.4
97.97572 218.4
98.00838 218.4
98.04171 218.4
98.07077 218.4
98.10162 218.4
98.13496 218.4
98.16618 218.4
98.19951 218.4
98.23195 218.4
98.26205 218.4
98.29538 218.4
98.32871 218.4
98.36205 218.4
98.39125 218.4
98.42268 218.4
98.45239 218.4
98.48573 218.4
98.51906 218.4
98.54785 218.4
98.57666 218.4
98.60695 218.4
98.63628 218.4
98.66962 218.4
98.70011 218.2
98.72811 218.2
98.76048 218.2
98.79208 218.2
98.82542 218.2
98.85354 218.2
98.88314 218.2
98.91106 218.2
98.94118 218.2
98.97452 218.2
99.00407 218.2
99.03205 218.2
99.06345 218.2
99.09655 218.2
99.12988 218.2
99.15895 218.2
99.18974 218.2
99.21919 218.2
99.25253 218.2
99.28586 218.2
99.31791 218.2
99.34545 218.2
99.37479 218.2
99.4051 218.2
99.43843 218.2
99.46655 218.2
99.49657 218.2
99.52908 218.2
99.55809 218.2
99.59142 218.2
99.62152 218.2
99.6506 218.2
99.68264 218.2
99.71597 218.2
99.7493 218.2
99.77748 218.2
99.80635 218.2
99.83968 218.2
99.86994 218.2
99.90327 218.2
99.93333 218.2
99.96667 218.2
99.99616 218.2
100.0245 218.2
100.0579 218.4
100.089 218.4
100.1212 218.4
100.1545 218.4
100.187 218.4
100.2203 218.4
100.2536 218.4
100.2832 218.4
100.3147 218.4
100.3437 218.4
100.377 218.4
100.4069 218.4
100.4359 218.4
100.4692 218.4
100.5008 218.4
100.5341 218.4
100.5642 218.4
100.5923 218.4
100.6214 218.2
100.6527 218.2
100.686 218.2
100.7194 218.2
100.7494 218.2
100.7783 218.2
100.8095 217.75
100.8428 217.75
100.8725 215.8
100.9037 215.8
100.9324 213.6
100.9633 210.1
100.9966 210.1
101.0257 206.65
101.0553 203.15
101.0864 203.15
101.1162 200.05
101.1496 200.05
101.1792 197.25
101.2125 195.25
101.2451 195.25
101.2743 194.6
101.3076 194.6
101.3366 194.6
101.3659 194.85
101.3993 195.5
101.4297 195.5
101.4631 195.7
101.4938 195.7
101.5271 195.7
101.5581 195.7
101.5877 195.25
101.6211 195.25
101.6504 194.85
101.6804 193.95
101.7104 193.95
101.7437 193.3
101.777 192.65
101.8103 192.65
101.8395 192
101.8728 190.9
101.9013 190.9
101.9346 189.6
101.9655 188.5
101.9968 188.5
102.028 187.2
102.0576 187.2
102.0909 186.3
102.121 185.45
102.153 185.45
102.1828 184.8
102.2161 184.55
102.2494 184.55
102.2803 184.15
102.3095 183.9
102.3393 183.9
102.3687 183.7
102.402 183.05
102.4311 183.05
102.4601 182.8
102.49 182.8
102.5188 182.15
102.5522 181.5
102.5808 181.5
102.6136 181.05
102.6458 180.65
102.6784 180.65
102.7118 180
102.742 179.75
102.7716 179.75
102.8039 179.3
102.835 179.3
102.8684 178.45
102.9017 177.8
102.9313 176.5
102.9625 176.5
102.9927 175.4
103.026 173
103.0586 173
103.0919 170.8
103.1219 170.8
103.1519 167.95
103.1852 165.35
103.217 165.35
103.2503 162.5
103.2796 159.2
103.3129 159.2
103.3462 155.05
103.3762 146.35
103.4075 146.35
103.4383 140.65
103.4667 125.6
103.5 125.6
103.5334 113.15
103.5647 97.6
103.5968 97.6
103.6267 87.35
103.6601 73.35
103.6896 73.35
103.7189 67.7
103.7501 67.7
103.7793 53.5
103.8127 40.6
103.846 22.9
103.8747 22.9
103.9061 8.7
103.9394 8.7
103.9728 -4.55
104.0017 -10.7
104.0326 -10.7
104.0618 -18.1
104.0902 -26.4
104.1235 -26.4
104.1534 -33.4
104.1837 -41.5
104.2152 -41.5
104.2449 -50
104.2783 -57
104.3088 -57
104.3371 -66.6
104.3688 -66.6
104.3979 -73.6
104.4312 -81.9
104.4595 -81.9
104.4889 -88
104.5185 -91.7
104.5477 -91.7
104.5811 -104.6
104.6113 -104.6
104.6408 -114
104.6696 -126.25
104.7028 -126.25
104.7361 -136.7
104.7695 -147.45
104.7998 -147.45
104.8331 -154.85
104.8642 -163.6
104.8976 -163.6
104.9291 -169.5
104.9589 -177.15
104.9905 -177.15
105.0196 -185.65
105.053 -192.2
105.081 -192.2
105.1111 -200.75
105.1399 -200.75
105.1716 -207.3
105.205 -214.5
105.2348 -214.5
105.2645 -218.4
105.2979 -218.4
105.3271 -218.4
105.3605 -218.4
105.3888 -218.4
105.4176 -218.4
105.4463 -218.4
105.4774 -218.4
105.5107 -218.4
105.5441 -218.4
105.5742 -218.4
105.6034 -218.4
105.6324 -218.4
105.6657 -218.4
105.6991 -218.4
105.7293 -218.4
105.7589 -218.4
105.7923 -218.4
105.8256 -218.4
105.8547 -218.4
105.8832 -218.4
105.9165 -218.4
105.9449 -218.4
105.9783 -218.4
106.0083 -218.4
106.0388 -218.4
106.0679 -218.4
106.0971 -218.4
106.1305 -218.4
106.1608 -218.4
106.19 -218.4
106.2199 -218.4
106.249 -218.4
106.2823 -218.4
106.3142 -218.4
106.3475 -218.4
106.3763 -218.4
106.4096 -218.4
106.4429 -218.4
106.472 -218.4
106.4999 -218.4
106.5332 -218.4
106.5658 -218.4
106.5992 -218.4
106.6325 -218.4
106.6647 -218.4
106.6944 -218.4
106.7261 -218.4
106.7595 -218.4
106.7897 -218.4
106.8198 -218.4
106.8531 -218.4
106.8839 -218.4
106.9172 -218.4
106.9489 -218.4
106.9793 -218.4
107.0076 -218.4
107.0367 -218.4
107.07 -218.4
107.1009 -218.4
107.1286 -218.4
107.1571 -218.4
107.1852 -218.4
107.2149 -218.4
107.2483 -218.4
107.2791 -218.4
107.3084 -218.4
107.3417 -218.4
107.3737 -218.4
107.407 -218.4
107.4347 -218.4
107.4657 -218.4
107.4983 -218.4
107.5311 -218.4
107.5644 -218.4
107.5978 -218.4
107.6251 -218.4
107.6581 -218.4
107.6914 -218.4
107.7247 -218.4
107.7545 -218.4
107.7861 -218.4
107.8145 -218.4
107.8443 -218.4
107.8776 -218.4
107.9109 -218.4
107.9434 -218.4
107.9766 -218.4
108.0062 -218.4
108.0396 -218.4
108.0729 -218.4
108.103 -218.4
108.1363 -218.4
108.1696 -218.4
108.203 -218.4
108.2324 -218.4
108.2649 -218.4
108.294 -218.4
108.323 -218.4
108.3563 -218.4
108.3865 -218.4
108.4198 -218.4
108.4532 -218.4
108.4834 -218.4
108.5168 -218.4
108.5465 -218.4
108.5769 -218.4
108.6097 -218.4
108.6414 -218.4
108.6748 -218.4
108.7063 -218.4
108.7349 -218.4
108.7632 -218.4
108.7956 -218.4
108.8289 -218.4
108.8605 -218.4
108.8938 -218.4
108.9241 -218.4
108.9567 -218.4
108.99 -218.4
109.0178 -218.4
109.0493 -218.4
109.0826 -218.4
109.116 -218.4
109.1493 -218.4
109.1786 -218.4
109.2084 -218.4
109.2382 -218.4
109.2684 -218.4
109.3017 -218.4
109.3345 -218.4
109.3653 -218.4
109.3952 -218.4
109.4256 -218.4
109.459 -218.4
109.4897 -218.4
109.5199 -218.4
109.5504 -218.4
109.5837 -218.4
109.6171 -218.4
109.6504 -218.4
109.681 -218.4
109.7095 -218.4
109.7417 -218.2
109.775 -218.2
109.8079 -218.2
109.8359 -218.2
109.8651 -218.2
109.8934 -218.2
109.9267 -218.2
109.9561 -218.2
109.9894 -218.2
110.018 -218.2
110.0496 -218.2
110.0829 -217.75
110.1138 -217.75
110.1433 -216.45
110.1725 -214.7
110.2058 -214.7
110.2392 -212.5
110.2693 -211
110.3011 -211
110.3308 -207.3
110.3641 -204.2
110.3975 -204.2
110.4308 -202.05
110.4587 -199.4
110.4873 -199.4
110.5199 -197.25
110.5532 -195.9
110.5815 -195.9
110.6125 -194.85
110.6433 -194.85
110.6766 -194.85
110.7099 -194.85
110.7433 -194.85
110.7728 -194.85
110.8061 -194.85
110.8395 -194.85
110.8728 -194.85
110.9061 -194.85
110.9362 -194.85
110.9672 -194.85
110.9963 -194.85
111.0296 -194.85
111.0624 -194.85
111.0908 -194.85
111.1231 -194.85
111.1525 -194.85
111.1858 -194.85
111.2191 -194.85
111.2485 -194.85
111.2789 -194.85
111.3101 -194.85
111.3434 -194.6
111.3768 -194.6
111.4077 -194.6
111.4371 -194.6
111.4704 -194.6
111.5038 -194.6
111.5371 -194.6
111.5692 -194.6
111.5976 -194.6
111.6309 -194.6
111.6643 -194.6
111.6937 -194.6
111.7212 -194.6
111.7545 -194.6
111.7854 -194.6
111.8187 -194.6
111.8508 -194.6
111.8841 -194.6
111.9136 -194.6
111.9439 -194.6
111.9772 -194.6
112.0069 -194.6
112.0355 -194.6
112.068 -194.6
112.0974 -194.6
112.1307 -194.6
112.1598 -194.6
112.1902 -194.6
112.223 -194.6
112.2533 -194.6
112.2866 -194.6
112.32 -194.6
112.35 -194.6
112.3834 -194.6
112.4126 -194.6
112.4459 -194.6
112.4747 -194.6
112.5068 -194.6
112.5356 -194.6
112.5688 -194.6
112.6022 -194.6
112.634 -194.6
112.6614 -194.6
112.6921 -194.6
112.7207 -194.6
112.754 -194.6
112.7856 -194.6
112.8168 -194.6
112.8454 -194.6
112.8782 -194.6
112.9116 -194.6
112.9436 -194.6
112.9717 -194.6
113.0021 -194.6
113.031 -194.6
113.0643 -194.6
113.0929 -194.6
113.1223 -194.6
113.1522 -194.6
113.1855 -194.6
113.2189 -194.6
113.2483 -194.6
113.2759 -194.6
113.3048 -194.6
113.3327 -194.6
113.3633 -194.6
113.3967 -194.6
113.43 -194.6
113.4585 -194.6
113.4895 -194.6
113.5193 -194.6
113.5527 -194.6
113.5838 -194.6
113.6141 -194.6
113.6429 -194.6
113.673 -194.6
113.7063 -194.6
113.7355 -194.6
113.7653 -194.6
113.7949 -194.6
113.8231 -194.6
113.8564 -194.6
113.8853 -194.6
113.9143 -194.6
113.944 -194.6
113.9766 -194.6
114.01 -194.6
114.0384 -194.6
114.0667 -194.6
114.0998 -194.6
114.133 -194.6
114.1663 -194.6
114.1996 -194.6
114.2285 -194.6
114.2616 -194.6
114.2936 -194.6
114.327 -194.6
114.3587 -194.6
114.3915 -194.6
114.4248 -194.6
114.4565 -194.6
114.4898 -194.6
114.5201 -194.6
114.5529 -194.6
114.5805 -194.6
114.6089 -194.6
114.6423 -194.6
114.6706 -194.6
114.7 -194.6
114.7289 -194.6
114.7565 -194.6
114.7873 -194.6
114.8206 -194.6
114.8516 -194.6
114.8793 -194.6
114.9126 -194.6
114.9406 -194.6
114.9739 -194.6
115.0073 -194.6
115.0375 -194.6
115.0705 -194.6
115.1023 -194.6
115.1356 -194.6
115.1678 -194.6
115.1973 -194.6
115.2273 -194.6
115.2582 -194.6
115.2915 -194.6
115.3217 -194.6
115.3508 -194.6
115.3837 -194.6
115.4145 -194.6
115.4479 -194.6
115.4812 -194.6
115.5097 -194.6
115.5396 -194.6
115.5689 -194.6
115.6023 -194.6
115.6324 -194.6
115.6648 -194.6
115.6931 -194.6
115.7264 -194.6
115.7597 -194.6
115.7896 -194.6
115.8186 -194.6
115.8486 -194.6
115.8819 -194.6
115.9153 -194.6
115.9463 -194.6
115.9769 -194.6
116.0102 -194.6
116.0398 -194.6
116.0731 -194.6
116.1027 -194.6
116.1305 -194.6
116.1619 -194.6
116.1925 -194.6
116.2258 -194.6
116.2565 -194.6
116.2898 -194.6
116.3188 -194.6
116.3504 -194.6
116.3837 -194.6
116.4131 -194.6
116.4457 -194.6
116.4768 -194.6
116.5076 -194.6
116.5409 -194.6
116.5697 -194.6
116.6006 -194.6
116.634 -194.6
116.6651 -194.6
116.6984 -194.6
116.7312 -194.6
116.7646 -194.6
116.7936 -194.6
116.822 -194.6
116.8553 -194.6
116.8879 -194.6
116.9192 -194.6
116.9512 -194.6
116.9846 -194.6
117.0179 -194.6
117.0473 -194.6
117.077 -194.6
117.1103 -194.6
117.1409 -194.6
117.1743 -194.6
117.2023 -194.6
117.2319 -194.6
117.2643 -194.6
117.2945 -194.6
117.3278 -194.6
117.3609 -194.6
117.3896 -194.6
117.4188 -194.6
117.4488 -194.6
117.4821 -194.6
117.5113 -194.6
117.5447 -194.6
117.5749 -194.6
117.6082 -194.6
117.6416 -194.6
117.6711 -194.6
117.6991 -194.6
117.7324 -194.6
117.7637 -194.6
117.7971 -194.6
117.8253 -194.6
117.8543 -194.6
117.8843 -194.6
117.9156 -194.6
117.9489 -194.6
117.9813 -194.6
118.0135 -194.6
118.0436 -194.6
118.0769 -194.6
118.1103 -194.6
118.1427 -194.6
118.1717 -194.6
118.2022 -194.6
118.2342 -194.6
118.2675 -194.6
118.2994 -194.6
118.3328 -194.6
118.3661 -194.6
118.3964 -194.6
118.4298 -194.6
118.4575 -194.6
118.4908 -194.6
118.52 -194.6
118.5512 -194.6
118.5846 -194.6
118.6147 -194.6
118.6428 -194.6
118.6761 -194.6
118.7065 -194.6
118.7398 -194.6
118.7687 -194.6
118.7986 -194.6
118.8268 -195.05
118.8572 -195.05
118.8905 -196.15
118.9233 -197.45
118.9558 -197.45
118.9891 -199.4
119.0172 -201.15
119.0506 -201.15
119.0804 -203.15
119.1112 -203.15
119.1436 -204.45
119.1737 -206.65
119.207 -206.65
119.24 -208.6
119.272 -211
119.3024 -211
119.3321 -213.2
119.3654 -215.15
119.3964 -216.9
119.4262 -216.9
119.4568 -218.4
119.4902 -218.4
119.5235 -218.4
119.5536 -218.4
119.5868 -218.4
119.6201 -218.4
119.6534 -218.4
119.6868 -218.4
119.717 -218.4
119.7459 -218.4
119.7782 -218.4
119.8087 -218.4
119.8421 -218.4
119.8735 -218.4
119.9031 -218.4
119.9364 -218.4
119.9667 -218.4
120 -218.4
120.0277 -218.2
120.0609 -218.2
120.0908 -218.2
120.1241 -218.2
120.1574 -218.2
120.1884 -218.2
120.2181 -218.2
120.2488 -218.2
120.2799 -218.2
120.3132 -218.2
120.341 -218.2
120.373 -218.2
120.4021 -218.2
120.4342 -218.2
120.4675 -218.2
120.4972 -218.2
120.5258 -218.2
120.5555 -218.2
120.5842 -218.2
120.6175 -218.2
120.6509 -218.2
120.6831 -218.2
120.7121 -218.2
120.7454 -218.2
120.7787 -218.2
120.809 -218.2
120.8412 -218.2
120.8708 -218.2
120.9019 -218.2
120.9353 -218.2
120.9633 -218.2
120.9958 -218.2
121.0292 -218.2
121.0593 -218.2
121.0926 -218.2
121.122 -218.2
121.1554 -218.2
121.1848 -218.2
121.2127 -218.2
121.2461 -218.2
121.2755 -218.2
121.3088 -218.2
121.3372 -218.2
121.3675 -218.2
121.4008 -218.2
121.4309 -218.2
121.4586 -218.2
121.4889 -218.2
121.5189 -218.2
121.5523 -218.2
121.58 -218.2
121.6133 -218.2
121.6456 -218.2
121.6754 -218.2
121.7088 -218.2
121.7383 -218.2
121.7678 -218.2
121.8011 -218.2
121.8321 -218.2
121.8654 -218.2
121.8955 -218.2
121.9246 -218.2
121.9558 -218.2
121.9891 -218.2
122.0225 -218.2
122.0558 -218.2
122.0837 -218.2
122.1142 -218.2
122.1434 -218.2
122.1768 -218.2
122.2049 -218.2
122.236 -218.2
122.2653 -218.2
122.2977 -218.2
122.331 -218.2
122.3644 -218.2
122.3933 -218.2
122.4231 -218.2
122.4521 -218.2
122.4854 -218.2
122.5143 -218.2
122.5444 -218.2
122.573 -218.2
122.6063 -218.2
122.6396 -218.2
122.673 -218.2
122.7049 -218.2
122.7362 -218.2
122.7643 -218.2
122.7976 -218.2
122.8294 -218.2
122.8606 -218.2
122.8896 -218.2
122.9211 -218.2
122.9544 -218.2
122.9878 -218.2
123.0197 -218.2
123.0484 -218.2
123.0775 -218.2
123.1108 -218.2
123.1442 -218.2
123.1762 -218.2
123.2063 -218.2
123.2396 -218.2
123.2729 -218.2
123.3063 -218.2
123.3343 -218.2
123.3676 -218.2
123.3984 -218.2
123.4317 -218.2
123.4606 -218.2
123.4914 -218.2
123.52 -218.2
123.5534 -218.2
123.5867 -218.2
123.6173 -218.2
123.649 -218.2
123.6807 -218.2
123.7101 -218.2
123.7434 -218.2
123.7768 -218.2
123.8085 -218.2
123.8416 -218.2
123.8709 -218.2
123.9042 -218.2
123.9336 -218.2
123.9669 -218.2
123.9962 -218.2
124.0256 -218.2
124.059 -218.2
124.088 -218.2
124.1187 -218.2
124.1485 -218.2
124.1798 -218.2
124.2131 -218.2
124.2449 -218.2
124.2734 -218.2
124.3036 -218.2
124.3369 -218.2
124.3703 -218.2
124.3979 -218.2
124.4269 -218.2
124.4549 -218.2
124.4852 -218.2
124.5186 -218.2
124.5477 -218.2
124.5786 -218.2
124.6081 -218.2
124.6395 -218.2
124.6728 -218.2
124.7061 -218.2
124.7369 -218.2
124.7657 -218.2
124.7957 -218.2
124.829 -218.2
124.8624 -218.2
124.8957 -218.2
124.9256 -218.2
124.9545 -218.2
124.9878 -218.2
125.0212 -218.2
125.0497 -218.2
125.0786 -218.2
125.1108 -218.2
125.1441 -218.2
125.1759 -218.2
125.2056 -218.2
125.239 -218.2
125.2686 -218.2
125.302 -218.2
125.3323 -218.2
125.3615 -218.2
125.3915 -218.2
125.4233 -218.2
125.4566 -218.2
125.4889 -218.2
125.5204 -218.2
125.5513 -218.2
125.5804 -218.2
125.6137 -218.2
125.6461 -218.2
125.6787 -218.2
125.7069 -218.2
125.7397 -218.2
125.7731 -218.2
125.8039 -218.2
125.8332 -218.2
125.8628 -218.2
125.8912 -218.2
125.9245 -218.2
125.9578 -218.2
125.9893 -218.2
126.0193 -218.2
126.0493 -218.2
126.0826 -217.75
126.1147 -216.65
126.1432 -216.65
126.1741 -215.8
126.2041 -215.8
126.2374 -214.5
126.2708 -214.05
126.3016 -214.05
126.33 -213.85
126.3633 -213.85
126.3967 -213.85
126.4296 -213.85
126.4615 -213.85
126.4949 -213.85
126.5282 -213.85
126.5615 -213.85
126.5897 -213.85
126.6182 -213.85
126.6464 -213.85
126.6766 -213.6
126.7099 -213.2
126.7433 -213.2
126.7766 -212.75
126.8077 -212.1
126.8394 -212.1
126.8728 -211.65
126.9061 -211
126.9394 -211
126.9728 -210.55
127.0061 -210.1
127.0394 -209.7
127.0685 -209.7
127.0974 -209.7
127.1294 -209.7
127.1591 -209.7
127.1924 -209.7
127.2251 -209.7
127.2554 -209.7
127.2842 -209.7
127.3161 -209.7
127.3494 -209.7
127.3828 -209.7
127.4121 -209.7
127.4455 -209.7
127.4752 -209.7
127.5086 -209.7
127.5377 -209.7
127.5676 -209.7
127.6009 -209.7
127.6314 -209.7
127.6647 -209.7
127.6942 -209.7
127.7223 -209.7
127.7534 -209.7
127.7817 -209.7
127.815 -209.7
127.8432 -209.7
127.8736 -209.7
127.9029 -209.7
127.9362 -209.7
127.9696 -209.7
128.0013 -209.7
128.0333 -209.7
128.0647 -209.7
128.0953 -209.7
128.1287 -209.7
128.162 -209.7
128.1935 -209.7
128.2236 -209.7
128.2538 -209.7
128.2871 -209.7
128.3181 -209.7
128.3482 -209.7
128.3797 -209.7
128.4093 -209.7
128.4426 -209.7
128.4701 -209.7
128.5004 -209.7
128.5316 -209.7
128.5649 -209.7
128.5982 -209.7
128.6316 -209.7
128.6624 -209.7
128.6953 -209.7
128.7272 -209.7
128.7606 -209.7
128.7897 -209.25
128.8207 -207.95
128.849 -207.95
128.8806 -206.4
128.914 -203.35
128.9432 -203.35
128.9765 -200.05
129.0098 -200.05
129.0394 -196.35
129.0727 -193.1
129.1033 -193.1
129.1338 -188.7
129.1671 -184.15
129.1973 -184.15
129.2307 -180.85
129.264 -177.15
129.2973 -173.85
129.3289 -173.85
129.358 -170.35
129.3913 -167.75
129.4191 -167.75
129.4525 -165.1
129.4858 -162.95
129.5191 -162.95
129.5525 -160.75
129.5823 -158.55
129.6111 -158.55
129.6408 -155.05
129.6741 -155.05
129.7074 -151.8
129.7408 -147
129.7741 -141.75
129.8033 -141.75
129.8367 -138.25
129.87 -130.6
129.902 -130.6
129.9337 -123.85
129.967 -116.2
129.9995 -116.2
130.0328 -108.55
130.0634 -100.9
130.0967 -100.9
130.13 -95.2
130.1617 -88.45
130.195 -88.45
130.2244 -84.1
130.2564 -79.95
130.286 -79.95
130.3143 -78.2
130.3476 -74.45
130.377 -74.45
130.4104 -71.2
130.4386 -71.2
130.4689 -66.8
130.5022 -61.6
130.5336 -61.6
130.5635 -57.45
130.593 -51.55
130.623 -51.55
130.6563 -46.95
130.6878 -41.5
130.7185 -41.5
130.7489 -36.65
130.7789 -36.65
130.8122 -32.5
130.8456 -29.45
130.8773 -27.05
130.907 -27.05
130.9355 -26.2
130.9688 -26.2
130.999 -25.75
131.0294 -25.75
131.0582 -25.75
131.0915 -25.75
131.1248 -25.75
131.1572 -25.75
131.1893 -25.75
131.2191 -25.75
131.2493 -25.75
131.2827 -25.75
131.3153 -25.75
131.3463 -25.75
131.3763 -25.75
131.4065 -25.75
131.4398 -25.1
131.4722 -22.9
131.5028 -22.9
131.5361 -20.95
131.5667 -18.1
131.6 -15.25
131.6324 -15.25
131.6637 -12.85
131.6938 -12.85
131.7232 -10.25
131.7565 -8.5
131.7898 -8.5
131.8183 -7.6
131.847 -5.45
131.8774 -5.45
131.9108 -3.25
131.9424 -0.2
131.9749 -0.2
132.0048 2.4
132.038 4.15
132.0713 4.15
132.1046 4.15
132.1322 4.15
132.1624 4.15
132.1912 4.15
132.2245 4.15
132.2571 4.15
132.2904 4.15
132.3193 4.15
132.3526 4.15
132.3859 4.15
132.4192 4.15
132.4478 4.35
132.4767 4.35
132.5075 4.35
132.5408 4.35
132.5698 4.35
132.6031 4.35
132.6364 4.15
132.6658 4.15
132.6991 3.9
132.7304 3.45
132.7615 3.45
132.7915 2.6
132.8202 1.95
132.8535 1.95
132.8815 1.7
132.9148 1.7
132.9436 1.7
132.9769 1.7
133.0103 1.7
133.0435 1.7
133.0715 1.7
133.1011 1.7
133.1294 1.7
133.1628 1.7
133.1913 1.7
133.2223 1.7
133.2516 1.7
133.2827 1.7
133.316 1.7
133.3489 1.7
133.3779 1.7
133.408 1.7
133.4367 1.7
133.47 1.7
133.4994 1.7
133.529 1.7
133.5578 1.7
133.5876 1.7
133.621 1.7
133.6505 1.7
133.6805 1.7
133.7138 1.7
133.7426 1.7
133.776 1.7
133.8093 1.7
133.8401 1.7
133.8698 1.7
133.8994 1.7
133.9327 1.7
133.966 1.7
133.9939 1.7
134.0235 1.7
134.0522 1.7
134.0856 1.7
134.1175 1.7
134.1491 1.7
134.1824 1.7
134.2117 1.7
134.245 1.7
134.2752 1.7
134.3037 1.7
134.3338 1.7
134.3652 1.7
134.3986 1.7
134.4268 1.7
134.456 1.7
134.486 1.7
134.5154 1.7
134.5487 1.7
134.5784 1.7
134.609 1.7
134.6384 1.7
134.6702 1.7
134.7036 1.7
134.7369 1.7
134.7669 1.7
134.7979 1.7
134.831 1.7
134.8643 1.7
134.8934 1.7
134.9232 1.7
134.9528 1.7
134.9861 1.7
135.0194 1.7
135.0508 1.7
135.0814 1.7
135.1096 1.7
135.143 1.7
135.1763 1.7
135.2056 1.7
135.2365 1.7
135.2698 1.7
135.2985 1.7
135.3318 1.7
135.3612 1.7
135.3936 1.7
135.4224 1.7
135.4557 1.7
135.4891 1.7
135.5185 1.7
135.548 1.7
135.5769 1.7
135.606 1.7
135.6393 1.7
135.6684 1.7
135.6971 1.7
135.728 1.7
135.7585 1.7
135.7918 1.7
135.8251 1.7
135.8561 1.7
135.8848 1.7
135.9148 1.7
135.9482 1.7
135.9773 1.7
136.0106 1.7
136.0407 1.7
136.0712 1.7
136.1045 1.7
136.1379 1.7
136.1672 1.7
136.1996 1.7
136.2277 1.7
136.2611 1.7
136.2933 1.7
136.3266 1.7
136.3588 1.7
136.3881 1.7
136.4214 1.7
136.4547 1.7
136.4881 1.7
136.5214 1.7
136.5538 1.7
136.5871 1.7
136.6205 1.7
136.6506 1.7
136.6839 1.7
136.715 1.7
136.7483 1.7
136.7776 1.7
136.8073 1.7
136.8385 1.7
136.8672 1.7
136.9005 1.7
136.9298 1.7
136.9592 1.7
136.9874 1.7
137.0189 1.7
137.0523 1.7
137.0816 1.7
137.1116 1.7
137.1437 1.7
137.1728 1.7
137.2061 1.7
137.2347 1.7
137.2655 1.7
137.2989 1.7
137.332 1.7
137.3653 1.7
137.3962 1.7
137.425 1.7
137.4562 1.7
137.4848 1.7
137.5182 1.7
137.5504 1.7
137.5802 1.7
137.6102 1.7
137.6402 1.7
137.6735 1.7
137.7031 1.7
137.7308 1.7
137.7634 1.7
137.7922 1.7
137.8255 1.7
137.8537 1.7
137.8848 1.7
137.9165 1.7
137.9498 1.7
137.9831 1.7
138.0125 1.7
138.0424 1.7
138.0713 1.7
138.1046 1.7
138.138 1.7
138.1705 1.7
138.2039 1.7
138.2361 1.7
138.2678 1.7
138.3012 1.7
138.3305 1.7
138.362 1.7
138.3927 1.7
138.4229 1.7
138.4563 1.7
138.4896 1.7
138.5229 1.7
138.5518 1.7
138.5828 1.7
138.6161 1.7
138.6453 1.7
138.6786 1.7
138.7076 1.7
138.7377 1.7
138.771 1.7
138.8026 1.7
138.8317 1.7
138.861 1.7
138.8939 1.7
138.9272 1.7
138.9563 1.7
138.9897 1.7
139.0223 1.7
139.0514 1.7
139.0848 1.7
139.1155 1.7
139.1488 1.7
139.1781 1.7
139.2114 1.7
139.2448 1.7
139.2766 1.7
139.3052 1.7
139.3363 1.7
139.3653 1.7
139.3986 1.7
139.4277 1.7
139.4583 1.7
139.4909 1.7
139.5215 1.7
139.5548 1.7
139.5839 1.7
139.6121 1.7
139.6413 1.7
139.6747 1.7
139.708 1.7
139.7374 1.7
139.7681 1.7
139.7964 1.7
139.8265 1.7
139.8598 1.7
139.8887 1.7
139.9181 1.7
139.9514 1.7
139.9815 1.7
140.0148 1.7
140.0482 1.7
140.0782 1.7
140.1115 1.7
140.1409 1.7
140.1743 1.7
140.2036 1.7
140.2316 1.7
140.2608 1.7
140.2888 1.7
140.3222 1.7
140.3514 1.7
140.3801 1.7
140.408 1.7
140.4413 1.7
140.4746 1.7
140.5064 1.7
140.5336 1.7
140.562 1.7
140.5925 1.7
140.6258 1.7
140.6591 1.7
140.6883 1.7
140.7177 1.7
140.7504 1.7
140.7838 1.7
140.8171 1.7
140.8465 1.7
140.879 1.7
140.9124 1.7
140.9457 1.7
140.9785 1.7
141.0109 1.7
141.0403 1.7
141.0714 1.7
141.1047 1.7
141.1381 1.7
141.1665 1.7
141.1951 1.7
141.2248 1.7
141.2581 1.7
141.2877 1.7
141.3177 1.7
141.3482 1.7
141.3798 1.7
141.4131 1.7
141.4433 1.7
141.4721 1.7
141.503 1.7
141.5363 1.7
141.5696 1.7
141.5982 1.7
141.6313 1.7
141.6609 1.7
141.6914 1.7
141.7247 1.7
141.7552 1.7
141.786 1.7
141.8169 1.7
141.8459 1.7
141.8792 1.7
141.9067 1.7
141.9363 1.7
141.9697 1.7
142.0028 1.7
142.0361 1.7
142.0681 1.7
142.0996 1.7
142.1329 1.7
142.1663 1.7
142.1996 1.7
142.2293 1.7
142.2627 1.7
142.291 1.7
142.3244 1.7
142.3577 1.7
142.391 1.7
142.4219 1.7
142.4503 1.7
142.4818 1.7
142.5152 1.7
142.5433 1.7
142.5741 1.7
142.6042 1.7
142.6372 1.7
142.6705 1.7
142.7014 1.7
142.7347 1.7
142.7636 1.7
142.7918 1.7
142.8251 1.7
142.8585 1.7
142.8918 1.7
142.9203 1.7
142.9516 1.7
142.9849 1.7
143.0144 1.7
143.0476 1.7
143.0769 1.7
143.1102 1.7
143.1435 1.7
143.1741 1.7
143.2071 1.7
143.2392 1.7
143.2716 1.7
143.305 1.7
143.3369 1.7
143.3682 1.7
143.3992 1.7
143.4277 1.7
143.4611 1.7
143.4907 1.7
143.5204 1.7
143.5499 1.7
143.579 1.7
143.6123 1.7
143.6444 1.7
143.6721 1.7
143.7043 1.7
143.7332 1.7
143.7665 1.7
143.7943 1.7
143.827 1.7
143.856 1.7
143.8874 1.7
143.9207 1.7
143.9523 1.7
143.9801 1.7
144.0117 1.7
144.0437 1.7
144.0771 1.7
144.1056 1.7
144.1386 1.7
144.1719 1.7
144.2025 1.7
144.2359 1.7
144.2692 1.7
144.2982 1.7
144.3316 1.7
144.3594 1.7
144.3927 1.7
144.4207 1.7
144.4504 1.7
144.4783 1.7
144.5081 1.7
144.5414 1.7
144.5737 1.7
144.605 1.7
144.6355 1.7
144.6641 1.7
144.6975 1.7
144.7289 1.7
144.7599 1.7
144.7905 1.7
144.8239 1.7
144.8572 1.7
144.8905 1.7
144.9226 1.7
144.9511 1.7
144.9807 1.7
145.014 1.7
145.0426 1.7
145.0725 1.7
145.1012 1.7
145.1327 1.7
145.166 1.7
145.1993 1.7
145.228 1.7
145.2614 1.7
145.2921 1.7
145.3254 1.7
145.3544 1.7
145.3878 1.7
145.4181 1.7
145.4501 1.7
145.4834 1.7
145.5132 1.7
145.542 1.7
145.5703 1.7
145.6036 1.7
145.6369 1.7
145.6647 1.7
145.698 1.7
145.7302 1.7
145.7609 1.7
145.7943 1.7
145.827 1.7
145.8567 1.7
145.8867 1.7
145.9149 1.7
145.9483 1.7
145.9781 1.7
146.0084 1.7
146.0383 1.7
146.0684 1.7
146.1018 1.7
146.1333 1.7
146.1636 1.7
146.1936 1.7
146.222 1.7
146.2553 1.7
146.2848 1.7
146.3151 1.7
146.3485 1.7
146.3818 1.7
146.4151 1.7
146.4459 1.7
146.4782 1.7
146.5075 1.7
146.5363 1.7
146.5696 1.7
146.5994 1.7
146.6288 1.7
146.6585 1.7
146.6885 1.7
146.7218 1.7
146.7551 1.7
146.787 1.7
146.8204 1.7
146.8517 1.7
146.885 1.7
146.9142 1.7
146.9448 1.7
146.9781 1.7
147.0082 1.7
147.0416 1.7
147.0738 1.7
147.107 1.7
147.1404 1.7
147.1737 1.7
147.207 1.7
147.2404 1.7
147.2696 1.7
147.2982 1.7
147.3291 1.7
147.3624 1.7
147.3945 1.7
147.4227 1.7
147.4526 1.7
147.4825 1.7
147.5158 1.7
147.5465 1.7
147.5779 1.7
147.6074 1.7
147.6396 1.7
147.6729 1.7
147.7024 1.7
147.7314 1.7
147.7601 1.7
147.7893 1.7
147.8226 1.7
147.8544 1.7
147.8877 1.7
147.9178 1.7
147.9503 1.7
147.9836 1.7
148.0169 1.7
148.0487 1.7
148.0818 1.7
148.111 1.7
148.1443 1.7
148.1729 1.7
148.2062 1.7
148.2361 1.7
148.2694 1.7
148.3027 1.7
148.3333 1.7
148.3628 1.7
148.3935 1.7
148.4268 1.7
148.4602 1.7
148.4935 1.7
148.5243 1.7
148.5551 1.7
148.5884 1.7
148.6217 1.7
148.6514 1.7
148.68 1.7
148.7112 1.7
148.7407 1.7
148.7741 1.7
148.8033 1.7
148.8366 1.7
148.8654 1.7
148.896 1.7
148.9294 1.7
148.9599 1.7
148.991 1.7
149.0204 1.7
149.0486 1.7
149.0819 1.7
149.1126 1.7
149.146 1.7
149.1767 1.7
149.21 1.7
149.2434 1.7
149.2767 1.7
149.3054 1.7
149.3387 1.7
149.3699 1.7
149.4033 1.7
149.4326 1.7
149.4637 1.7
149.4938 1.7
149.5271 1.7
149.5605 1.7
149.5903 1.7
149.6211 1.7
149.6517 1.7
149.685 1.7
149.7183 1.7
149.7512 1.7
149.7819 1.7
149.8112 1.7
149.8446 1.7
149.8779 1.7
149.9075 1.7
149.9409 1.7
149.9709 1.7
150.0043 1.7
150.0376 1.7
150.0665 1.7
150.0998 1.7
150.1331 1.7
150.1637 1.7
150.197 1.7
150.2284 1.7
150.2617 1.7
150.295 1.7
150.3281 1.7
150.3614 1.7
150.3937 1.7
150.4238 1.7
150.4536 1.7
150.4859 1.7
150.5192 1.7
150.5498 1.7
150.5826 1.7
150.6148 1.7
150.6481 1.7
150.6814 1.7
150.7123 1.7
150.745 1.7
150.7741 1.7
150.8074 1.7
150.8408 1.7
150.8698 1.7
150.8975 1.7
150.9306 1.7
150.96 1.7
150.9933 1.7
151.0223 1.7
151.0536 1.7
151.0836 1.7
151.117 1.7
151.1503 1.7
151.1801 1.7
151.2135 1.7
151.2425 1.7
151.2711 1.7
151.3045 1.7
151.3338 1.7
151.3632 1.7
151.3917 1.7
151.4251 1.7
151.4584 1.7
151.4905 1.7
151.5188 1.7
151.5507 1.7
151.5836 1.7
151.617 1.7
151.6463 1.7
151.6759 1.7
151.7044 1.7
151.7377 1.7
151.771 1.7
151.8009 1.7
151.8298 1.7
151.8595 1.7
151.8928 1.7
151.9262 1.7
151.9557 1.7
151.9868 1.7
152.0146 1.7
152.045 1.7
152.0783 1.7
152.1067 1.7
152.1353 1.7
152.1643 1.7
152.1942 1.7
152.2275 1.7
152.2598 1.7
152.2906 1.7
152.3186 1.7
152.35 1.7
152.3834 1.7
152.4123 1.7
152.4403 1.7
152.4696 1.7
152.5001 1.7
152.5335 1.7
152.5632 1.7
152.5923 1.7
152.6208 1.7
152.6492 1.7
152.6825 1.7
152.7113 1.7
152.7399 1.7
152.7698 1.7
152.8021 1.7
152.8354 1.7
152.8642 1.7
152.8944 1.7
152.9245 1.7
152.9546 1.7
152.9877 1.7
153.021 1.7
153.0543 1.7
153.0863 1.7
153.1143 1.7
153.1477 1.7
153.1763 1.7
153.2053 1.7
153.2387 1.7
153.268 1.7
153.3007 1.7
153.3307 1.7
153.3596 1.7
153.3903 1.7
153.4201 1.7
153.4534 1.7
153.4804 1.7
153.5126 1.7
153.546 1.7
153.5752 1.7
153.6085 1.7
153.6368 1.7
153.6686 1.7
153.697 1.7
153.7283 1.7
153.7617 1.7
153.7929 1.7
153.8262 1.7
153.8557 1.7
153.8881 1.7
153.9215 1.7
153.9505 1.7
153.9838 1.7
154.0158 1.7
154.0433 1.7
154.0766 1.7
154.1041 1.7
154.1362 1.7
154.1675 1.7
154.1958 1.7
154.2291 1.7
154.2624 1.7
154.2958 1.7
154.3248 1.7
154.3524 1.7
154.3858 1.7
154.4188 1.7
154.4496 1.7
154.4786 1.7
154.5119 1.7
154.5453 1.7
154.5755 1.7
154.6059 1.7
154.6392 1.7
154.6687 1.7
154.702 1.7
154.7295 1.7
154.7589 1.7
154.7871 1.7
154.8183 1.7
154.8517 1.7
154.8825 1.7
154.9107 1.7
154.9408 1.7
154.9741 1.7
155.0074 1.7
155.0408 1.7
155.0694 1.7
155.0987 1.7
155.1294 1.7
155.1627 1.7
155.1926 1.7
155.2229 1.7
155.2517 1.7
155.2794 1.7
155.3127 1.7
155.3447 1.7
155.3739 1.7
155.4059 1.7
155.4376 1.7
155.4709 1.7
155.5019 1.7
155.532 1.7
155.5618 1.7
155.5897 1.7
155.623 1.7
155.652 1.7
155.6812 1.7
155.7089 1.7
155.7422 1.7
155.7756 1.7
155.8044 1.7
155.8319 1.7
155.8644 1.7
155.8945 1.7
155.9279 1.7
155.9582 1.7
155.989 1.7
156.0206 1.7
156.049 1.7
156.0823 1.7
156.113 1.7
156.1407 1.7
156.173 1.7
156.2023 1.7
156.2356 1.7
156.2641 1.7
156.297 1.7
156.3244 1.7
156.3552 1.7
156.3886 1.7
156.4219 1.7
156.4487 1.7
156.4811 1.7
156.5139 1.7
156.5472 1.7
156.5749 1.7
156.6069 1.7
156.6355 1.7
156.6688 1.7
156.7022 1.7
156.7355 1.7
156.7661 1.7
156.7963 1.7
156.8249 1.7
156.8582 1.7
156.8857 1.7
156.917 1.7
156.9447 1.7
156.9762 1.7
157.0095 1.7
157.0375 1.7
157.0665 1.7
157.096 1.7
157.1255 1.7
157.1556 1.7
157.1889 1.7
157.2223 1.7
157.2514 1.7
157.2848 1.7
157.3165 1.7
157.3499 1.7
157.3777 1.7
157.4071 1.7
157.4384 1.7
157.4682 1.7
157.5016 1.7
157.5347 1.7
157.5667 1.7
157.5953 1.7
157.6241 1.7
157.6574 1.7
157.686 1.7
157.7158 1.7
157.7441 1.7
157.7774 1.7
157.8108 1.7
157.8441 1.7
157.8769 1.7
157.9092 1.7
157.942 1.7
157.9754 1.7
158.0084 1.7
158.038 1.7
158.0703 1.7
158.1002 1.7
158.1336 1.7
158.1637 1.7
158.1925 1.7
158.2235 1.7
158.2527 1.7
158.2861 1.7
158.3152 1.7
158.3482 1.7
158.3815 1.7
158.414 1.7
158.4473 1.7
158.4764 1.7
158.5098 1.7
158.5428 1.7
158.5731 1.7
158.6065 1.7
158.6358 1.7
158.6691 1.7
158.7002 1.7
158.7294 1.7
158.7628 1.7
158.7961 1.7
158.8241 1.7
158.8559 1.7
158.8852 1.7
158.9185 1.7
158.9479 1.7
158.9773 1.7
159.0082 1.7
159.0385 1.7
159.0718 1.7
159.101 1.7
159.1329 1.7
159.1625 1.7
159.1917 1.7
159.2251 1.7
159.2528 1.7
159.284 1.7
159.3114 1.7
159.3434 1.7
159.3767 1.7
159.4077 1.7
159.4392 1.7
159.4693 1.7
159.501 1.7
159.5343 1.7
159.567 1.7
159.5991 1.7
159.628 1.7
159.6576 1.7
159.6909 1.7
159.7217 1.7
159.7551 1.7
159.7858 1.7
159.815 1.7
159.8484 1.7
159.8776 1.7
159.9062 1.7
159.9342 1.7
159.966 1.7
159.9994 1.7
160.029 1.7
160.0623 1.7
160.0912 1.7
160.1195 1.7
160.1528 1.7
160.1809 1.7
160.2142 1.7
160.2426 1.7
160.272 1.7
160.3053 1.7
160.3386 1.7
160.3671 1.7
160.3986 1.7
160.4292 1.7
160.4626 1.7
160.4915 1.7
160.5212 1.7
160.5527 1.7
160.5831 1.7
160.6156 1.7
160.6449 1.7
160.6782 1.7
160.7091 1.7
160.7382 1.7
160.7715 1.7
160.8 1.7
160.8305 1.7
160.86 1.7
160.8892 1.7
160.9225 1.7
160.9538 1.7
160.9832 1.7
161.0136 1.7
161.042 1.7
161.0754 1.7
161.1036 1.7
161.1326 1.7
161.1647 1.7
161.198 1.7
161.2313 1.7
161.2599 1.7
161.2894 1.7
161.3207 1.7
161.3522 1.7
161.3856 1.7
161.4148 1.7
161.4481 1.7
161.4771 1.7
161.5064 1.7
161.5398 1.7
161.5685 1.7
161.5958 1.7
161.6259 1.7
161.6543 1.7
161.6876 1.7
161.7161 1.7
161.7452 1.7
161.7742 1.7
161.8049 1.7
161.8382 1.7
161.8704 1.7
161.9029 1.7
161.9363 1.7
161.9696 1.7
162.0029 1.7
162.0318 1.7
162.0613 1.7
162.0913 1.7
162.1216 1.7
162.1549 1.7
162.1882 1.7
162.2151 1.7
162.2443 1.7
162.2765 1.7
162.3099 1.7
162.3415 1.7
162.3707 1.7
162.3985 1.7
162.4317 1.7
162.465 1.7
162.4955 1.7
162.528 1.7
162.5597 1.7
162.5924 1.7
162.6257 1.7
162.654 1.7
162.6873 1.7
162.7153 1.7
162.7461 1.7
162.7794 1.7
162.8104 1.7
162.839 1.7
162.8723 1.7
162.9037 1.7
162.937 1.7
162.9672 1.7
162.9991 1.7
163.0304 1.7
163.0608 1.7
163.0941 1.7
163.1226 1.7
163.1512 1.7
163.1804 1.7
163.2079 1.7
163.2365 1.7
163.2698 1.7
163.2997 1.7
163.3269 1.7
163.3562 1.7
163.3895 1.7
163.4229 1.7
163.4516 1.7
163.4831 1.7
163.5142 1.7
163.5458 1.7
163.5792 1.7
163.6078 1.7
163.6368 1.7
163.6674 1.7
163.7006 1.7
163.7339 1.7
163.7625 1.7
163.7943 1.7
163.8269 1.7
163.8562 1.7
163.8895 1.7
163.9183 1.7
163.9465 1.7
163.9799 1.7
164.0092 1.7
164.0425 1.7
164.0706 1.7
164.1026 1.7
164.1312 1.7
164.1638 1.7
164.1972 1.7
164.2276 1.7
164.2561 1.7
164.2876 1.7
164.319 1.7
164.3523 1.7
164.3798 1.7
164.4097 1.7
164.437 1.7
164.4703 1.7
164.5036 1.7
164.536 1.7
164.5684 1.7
164.5974 1.7
164.6266 1.7
164.6599 1.7
164.689 1.7
164.7223 1.7
164.7496 1.7
164.7811 1.7
164.8144 1.7
164.8434 1.7
164.8712 1.7
164.9041 1.7
164.9336 1.7
164.9669 1.7
164.9978 1.7
165.0271 1.7
165.0559 1.7
165.0881 1.7
165.1214 1.7
165.1548 1.7
165.1881 1.7
165.2166 1.7
165.2451 1.7
165.2785 1.7
165.3067 1.7
165.3356 1.7
165.3661 1.7
165.3954 1.7
165.4287 1.7
165.4574 1.7
165.4877 1.7
165.5211 1.7
165.549 1.7
165.5823 1.7
165.6115 1.7
165.6414 1.7
165.6742 1.7
165.7076 1.7
165.7409 1.7
165.7719 1.7
165.8008 1.7
165.8297 1.7
165.859 1.7
165.8923 1.7
165.9214 1.7
165.9507 1.7
165.9798 1.7
166.0104 1.7
166.0438 1.7
166.0763 1.7
166.109 1.7
166.1417 1.7
166.17 1.7
166.2034 1.7
166.2327 1.7
166.2636 1.7
166.2916 1.7
166.3247 1.7
166.358 1.7
166.3873 1.7
166.4205 1.7
166.4499 1.7
166.4832 1.7
166.5166 1.7
166.5443 1.7
166.5746 1.7
166.6049 1.7
166.6353 1.7
166.6687 1.7
166.6992 1.7
166.7274 1.7
166.7573 1.7
166.7885 1.7
166.8218 1.7
166.8504 1.7
166.8838 1.7
166.9149 1.7
166.945 1.7
166.9783 1.7
167.0102 1.7
167.0418 1.7
167.0738 1.7
167.1031 1.7
167.1365 1.7
167.1641 1.7
167.1946 1.7
167.2226 1.7
167.2528 1.7
167.2862 1.7
167.3172 1.7
167.3455 1.7
167.377 1.7
167.4053 1.7
167.4386 1.7
167.4692 1.7
167.501 1.7
167.53 1.7
167.5631 1.7
167.5964 1.7
167.628 1.7
167.6579 1.7
167.6872 1.7
167.7182 1.7
167.7516 1.7
167.7803 1.7
167.8136 1.7
167.8445 1.7
167.8766 1.7
167.91 1.7
167.9433 1.7
167.971 1.7
168.0016 1.7
168.0326 1.7
168.066 1.7
168.0947 1.7
168.1259 1.7
168.1543 1.7
168.1859 1.7
168.2192 1.7
168.2526 1.7
168.2841 1.7
168.3141 1.7
168.3464 1.7
168.3797 1.7
168.4081 1.7
168.4377 1.7
168.4663 1.7
168.4981 1.7
168.5314 1.7
168.5643 1.7
168.5977 1.7
168.6297 1.7
168.6603 1.7
168.6936 1.7
168.727 1.7
168.7603 1.7
168.7913 1.7
168.8211 1.7
168.8544 1.7
168.8858 1.7
168.9184 1.7
168.9466 1.7
168.977 1.7
169.0103 1.7
169.0382 1.7
169.0682 1.7
169.1015 1.7
169.1308 1.7
169.1641 1.7
169.1969 1.7
169.2302 1.7
169.26 1.7
169.2896 1.7
169.323 1.7
169.3508 1.7
169.3811 1.7
169.4112 1.7
169.4445 1.7
169.4778 1.7
169.5085 1.7
169.5377 1.7
169.5711 1.7
169.6044 1.7
169.6377 1.7
169.6711 1.7
169.7042 1.7
169.7342 1.7
169.7659 1.7
169.7992 1.7
169.8286 1.7
169.8599 1.7
169.8915 1.7
169.9239 1.7
169.9573 1.7
169.986 1.7
170.016 1.7
170.0494 1.7
170.0821 1.7
170.1154 1.7
170.1468 1.7
170.1801 1.7
170.2089 1.7
170.2392 1.7
170.2726 1.7
170.3044 1.7
170.3377 1.7
170.371 1.7
170.4044 1.7
170.4377 1.7
170.4705 1.7
170.499 1.7
170.5324 1.7
170.5638 1.7
170.5971 1.7
170.6305 1.7
170.6638 1.7
170.6971 1.7
170.7279 1.7
170.7612 1.7
170.7946 1.7
170.8239 1.7
170.8538 1.7
170.8822 1.7
170.9155 1.7
170.9488 1.7
170.9807 1.7
171.0111 1.7
171.0443 1.7
171.0777 1.7
171.1073 1.7
171.1355 1.7
171.1658 1.7
171.1948 1.7
171.2281 1.7
171.2587 1.7
171.2885 1.7
171.3185 1.7
171.3497 1.7
171.3831 1.7
171.4164 1.7
171.4459 1.7
171.4762 1.7
171.5064 1.7
171.5397 1.7
171.5709 1.7
171.6006 1.7
171.6298 1.7
171.66 1.7
171.6933 1.7
171.724 1.7
171.7547 1.7
171.7852 1.7
171.8131 1.7
171.8464 1.7
171.8776 1.7
171.911 1.7
171.9443 1.7
171.9776 1.7
172.011 1.7
172.0443 1.7
172.0733 1.7
172.1066 1.7
172.1371 1.7
172.1705 1.7
172.2038 1.7
172.2331 1.7
172.2651 1.7
172.2954 1.7
172.3287 1.7
172.3617 1.7
172.3932 1.7
172.426 1.7
172.4579 1.7
172.4912 1.7
172.523 1.7
172.5564 1.7
172.587 1.7
172.6183 1.7
172.6517 1.7
172.681 1.7
172.7132 1.7
172.744 1.7
172.7731 1.7
172.8064 1.7
172.8349 1.7
172.865 1.7
172.8984 1.7
172.9284 1.7
172.9617 1.7
172.9926 1.7
173.025 1.7
173.0572 1.7
173.0878 1.7
173.1211 1.7
173.1544 1.7
173.184 1.7
173.2123 1.7
173.243 1.7
173.2763 1.7
173.3097 1.7
173.3408 1.7
173.3712 1.7
173.401 1.7
173.4343 1.7
173.4676 1.7
173.4992 1.7
173.5286 1.7
173.5589 1.7
173.5922 1.7
173.6232 1.7
173.6537 1.7
173.687 1.7
173.7159 1.7
173.7492 1.7
173.778 1.7
173.8074 1.7
173.8374 1.7
173.8695 1.7
173.9028 1.7
173.9344 1.7
173.9651 1.7
173.9979 1.7
174.0281 1.7
174.0614 1.7
174.0905 1.7
174.1239 1.7
174.1556 1.7
174.1886 1.7
174.222 1.7
174.2531 1.7
174.2864 1.7
174.3176 1.7
174.3465 1.7
174.3798 1.7
174.4097 1.7
174.443 1.7
174.4757 1.7
174.5091 1.7
174.5424 1.7
174.5754 1.7
174.606 1.7
174.6371 1.7
174.6663 1.7
174.6997 1.7
174.7327 1.7
174.7621 1.7
174.7908 1.7
174.8214 1.7
174.8547 1.7
174.8857 1.7
174.919 1.7
174.9482 1.7
174.9761 1.7
175.0094 1.7
175.0395 1.7
175.0697 1.7
175.0986 1.7
175.1317 1.7
175.165 1.7
175.1976 1.7
175.2274 1.7
175.2568 1.7
175.2867 1.7
175.32 1.7
175.3493 1.7
175.3826 1.7
175.4124 1.7
175.4434 1.7
175.4767 1.7
175.5064 1.7
175.537 1.7
175.5703 1.7
175.6036 1.7
175.6369 1.7
175.668 1.7
175.6971 1.7
175.7253 1.7
175.7561 1.7
175.7894 1.7
175.8214 1.7
175.8496 1.7
175.8788 1.7
175.9111 1.7
175.9444 1.7
175.9751 1.7
176.0063 1.7
176.0396 1.7
176.0707 1.7
176.104 1.7
176.1335 1.7
176.1628 1.7
176.194 1.7
176.2239 1.7
176.2573 1.7
176.2863 1.7
176.3196 1.7
176.3504 1.7
176.381 1.7
176.4143 1.7
176.446 1.7
176.4775 1.7
176.5062 1.7
176.5351 1.7
176.5685 1.7
176.5986 1.7
176.6319 1.7
176.6637 1.7
176.6944 1.7
176.7277 1.7
176.7594 1.7
176.7902 1.7
176.8212 1.7
176.851 1.7
176.8844 1.7
176.9158 1.7
176.9452 1.7
176.9785 1.7
177.0114 1.7
177.0448 1.7
177.0749 1.7
177.1068 1.7
177.1369 1.7
177.1651 1.7
177.1984 1.7
177.2283 1.7
177.2616 1.7
177.2923 1.7
177.3215 1.7
177.3549 1.7
177.3882 1.7
177.4165 1.7
177.4482 1.7
177.4815 1.7
177.5148 1.7
177.5427 1.7
177.5761 1.7
177.6051 1.7
177.6354 1.7
177.6687 1.7
177.702 1.7
177.7323 1.7
177.7656 1.7
177.799 1.7
177.8323 1.7
177.8615 1.7
177.8925 1.7
177.9211 1.7
177.9539 1.7
177.9873 1.7
178.0179 1.7
178.049 1.7
178.0793 1.7
178.1106 1.7
178.144 1.7
178.1773 1.7
178.2089 1.7
178.2422 1.7
178.2756 1.7
178.3089 1.7
178.3406 1.7
178.3691 1.7
178.3981 1.7
178.4274 1.7
178.4607 1.7
178.4935 1.7
178.5225 1.7
178.5523 1.7
178.5824 1.7
178.6157 1.7
178.6452 1.7
178.6786 1.7
178.7086 1.7
178.7377 1.7
178.771 1.7
178.8044 1.7
178.8377 1.7
178.8708 1.7
178.902 1.7
178.9353 1.7
178.9656 1.7
178.9957 1.7
179.0277 1.7
179.0608 1.7
179.0941 1.7
179.1274 1.7
179.1607 1.7
179.1913 1.7
179.2225 1.7
179.2559 1.7
179.2892 1.7
179.3195 1.7
179.3525 1.7
179.3858 1.7
179.4192 1.7
179.4497 1.7
179.4805 1.7
179.5085 1.7
179.54 1.7
179.5733 1.7
179.6058 1.7
179.6341 1.7
179.664 1.7
179.6953 1.7
179.7287 1.7
179.7589 1.7
179.7917 1.7
179.8203 1.7
179.8512 1.7
179.8845 1.7
179.9144 1.7
179.943 1.7
179.9748 1.7
180.0044 1.7
180.0378 1.7
180.0663 1.7
180.0963 1.7
180.1252 1.7
180.1547 1.7
180.188 1.7
180.218 1.7
180.2504 1.7
180.2826 1.7
180.3159 1.7
180.3493 1.7
180.3788 1.7
180.4119 1.7
180.4421 1.7
180.4716 1.7
180.5049 1.7
180.5366 1.7
180.5673 1.7
180.5988 1.7
180.6322 1.7
180.6655 1.7
180.6942 1.7
180.7276 1.7
180.7567 1.7
180.7863 1.7
180.8197 1.7
180.8501 1.7
180.8794 1.7
180.9117 1.7
180.9421 1.7
180.9754 1.7
181.0033 1.7
181.0353 1.7
181.0632 1.7
181.0921 1.7
181.1255 1.7
181.1559 1.7
181.184 1.7
181.2161 1.7
181.2455 1.7
181.2788 1.7
181.3081 1.7
181.3414 1.7
181.3719 1.7
181.404 1.7
181.4374 1.7
181.4694 1.7
181.4991 1.7
181.5305 1.7
181.5627 1.7
181.596 1.7
181.6252 1.7
181.6564 1.7
181.6849 1.7
181.7143 1.7
181.7476 1.7
181.7775 1.7
181.8062 1.7
181.8361 1.7
181.8648 1.7
181.8982 1.7
181.9315 1.7
181.962 1.7
181.9954 1.7
182.0287 1.7
182.062 1.7
182.0954 1.7
182.1238 1.7
182.1533 1.7
182.1837 1.7
182.217 1.7
182.2503 1.7
182.2821 1.7
182.3151 1.7
182.3485 1.7
182.3818 1.7
182.4151 1.7
182.4485 1.7
182.4791 1.7
182.5113 1.7
182.5446 1.7
182.5771 1.7
182.6065 1.7
182.6354 1.7
182.6687 1.7
182.7021 1.7
182.7314 1.7
182.7616 1.7
182.7917 1.7
182.8223 1.7
182.8556 1.7
182.8866 1.7
182.9199 1.7
182.9522 1.7
182.9841 1.7
183.0175 1.7
183.0508 1.7
183.0841 1.7
183.1154 1.7
183.145 1.7
183.1783 1.7
183.2067 1.7
183.2395 1.7
183.2712 1.7
183.304 1.7
183.3373 1.7
183.3692 1.7
183.3983 1.7
183.4316 1.7
183.465 1.7
183.4983 1.7
183.526 1.7
183.5553 1.7
183.5887 1.7
183.6207 1.7
183.654 1.7
183.6824 1.7
183.7152 1.7
183.7444 1.7
183.7748 1.7
183.8082 1.7
183.8376 1.7
183.871 1.7
183.9023 1.7
183.9357 1.7
183.969 1.7
183.999 1.7
184.0277 1.7
184.0579 1.7
184.0889 1.7
184.1222 1.7
184.1555 1.7
184.1872 1.7
184.2159 1.7
184.2457 1.7
184.279 1.7
184.3124 1.7
184.3457 1.7
184.3751 1.7
184.4069 1.7
184.4402 1.7
184.4717 1.7
184.5051 1.7
184.537 1.7
184.5703 1.7
184.6036 1.7
184.6337 1.7
184.6624 1.7
184.6924 1.7
184.7215 1.7
184.7549 1.7
184.7882 1.7
184.8169 1.7
184.8502 1.7
184.8803 1.7
184.9137 1.7
184.9467 1.7
184.9764 1.7
185.0097 1.7
185.0411 1.7
185.0744 1.7
185.103 1.7
185.1349 1.7
185.1644 1.7
185.1953 1.7
185.2286 1.7
185.262 1.7
185.2906 1.7
185.324 1.7
185.3536 1.7
185.3869 1.7
185.4156 1.7
185.4489 1.7
185.4781 1.7
185.5079 1.7
185.5412 1.7
185.5746 1.7
185.6027 1.7
185.6328 1.7
185.6621 1.7
185.6955 1.7
185.7241 1.7
185.7537 1.7
185.7817 1.7
185.8132 1.7
185.8465 1.7
185.8779 1.7
185.9068 1.7
185.9374 1.7
185.9705 1.7
186.0038 1.7
186.034 1.7
186.0655 1.7
186.096 1.7
186.1292 1.7
186.1625 1.7
186.1958 1.7
186.2276 1.7
186.2572 1.7
186.2887 1.7
186.3221 1.7
186.3545 1.7
186.3844 1.7
186.4131 1.7
186.4431 1.7
186.4764 1.7
186.5097 1.7
186.5377 1.7
186.5683 1.7
186.5979 1.7
186.6312 1.7
186.66 1.7
186.6929 1.7
186.7211 1.7
186.7545 1.7
186.7878 1.7
186.8178 1.7
186.846 1.7
186.8775 1.7
186.9077 1.7
186.941 1.7
186.9737 1.7
187.0051 1.7
187.0384 1.7
187.0706 1.7
187.1039 1.7
187.1367 1.7
187.1657 1.7
187.1956 1.7
187.2289 1.7
187.2623 1.7
187.2911 1.7
187.3245 1.7
187.3526 1.7
187.3833 1.7
187.4166 1.7
187.4465 1.7
187.477 1.7
187.5078 1.7
187.5375 1.7
187.5708 1.7
187.6031 1.7
187.6364 1.7
187.6658 1.7
187.6961 1.7
187.7294 1.7
187.7621 1.7
187.7929 1.7
187.8256 1.7
187.8564 1.7
187.8898 1.7
187.9203 1.7
187.9501 1.7
187.9774 1.7
188.0088 1.7
188.0422 1.7
188.0729 1.7
188.1054 1.7
188.1378 1.7
188.1687 1.7
188.202 1.7
188.2353 1.7
188.2687 1.7
188.2997 1.7
188.3292 1.7
188.3626 1.7
188.3915 1.7
188.4199 1.7
188.4532 1.7
188.486 1.7
188.5194 1.7
188.5527 1.7
188.586 1.7
188.6194 1.7
188.6503 1.7
188.6837 1.7
188.717 1.7
188.7465 1.7
188.7785 1.7
188.8091 1.7
188.8425 1.7
188.8758 1.7
188.9075 1.7
188.9394 1.7
188.9685 1.7
189.0018 1.7
189.0316 1.7
189.0613 1.7
189.0934 1.7
189.1229 1.7
189.1562 1.7
189.1891 1.7
189.2225 1.7
189.2548 1.7
189.2881 1.7
189.3215 1.7
189.3548 1.7
189.3851 1.7
189.4163 1.7
189.446 1.7
189.4793 1.7
189.5074 1.7
189.5392 1.7
189.5691 1.7
189.5994 1.7
189.6328 1.7
189.6661 1.7
189.6966 1.7
189.73 1.7
189.763 1.7
189.7964 1.7
189.8273 1.7
189.8606 1.7
189.8908 1.7
189.9228 1.7
189.9562 1.7
189.9854 1.7
190.0188 1.7
190.0481 1.7
190.0774 1.7
190.1107 1.7
190.1398 1.7
190.1722 1.7
190.2018 1.7
190.2321 1.7
190.2654 1.7
190.2955 1.7
190.3237 1.7
190.3544 1.7
190.3837 1.7
190.417 1.7
190.4465 1.7
190.4761 1.7
190.5048 1.7
190.5368 1.7
190.5702 1.7
190.6031 1.7
190.6322 1.7
190.6653 1.7
190.6986 1.7
190.7319 1.7
190.7653 1.7
190.7986 1.7
190.8282 1.7
190.8615 1.7
190.8899 1.7
190.9198 1.7
190.95 1.7
190.9834 1.7
191.0167 1.7
191.0466 1.7
191.0749 1.7
191.1082 1.7
191.1366 1.7
191.17 1.7
191.1986 1.7
191.2281 1.7
191.2611 1.7
191.2935 1.7
191.3269 1.7
191.3592 1.7
191.3894 1.7
191.4227 1.7
191.4545 1.7
191.4878 1.7
191.5162 1.7
191.5495 1.7
191.5771 1.7
191.6064 1.7
191.6398 1.7
191.6694 1.7
191.6988 1.7
191.729 1.7
191.7574 1.7
191.7908 1.7
191.8234 1.7
191.853 1.7
191.8825 1.7
191.9122 1.7
191.9455 1.7
191.9784 1.7
192.008 1.7
192.0407 1.7
192.0696 1.7
192.1029 1.7
192.1317 1.7
192.1632 1.7
192.1965 1.7
192.2262 1.7
192.2595 1.7
192.2928 1.7
192.3235 1.7
192.3568 1.7
192.3866 1.7
192.42 1.7
192.4481 1.7
192.4809 1.7
192.5089 1.7
192.5423 1.7
192.5756 1.7
192.6055 1.7
192.6349 1.7
192.6653 1.7
192.696 1.7
192.7293 1.7
192.7577 1.7
192.79 1.7
192.8233 1.7
192.8567 1.7
192.89 1.7
192.9209 1.7
192.9538 1.7
192.9839 1.7
193.0172 1.7
193.0506 1.7
193.0839 1.7
193.1145 1.7
193.1425 1.7
193.1756 1.7
193.209 1.7
193.2423 1.7
193.273 1.7
193.3031 1.7
193.3316 1.7
193.3649 1.7
193.3939 1.7
193.4245 1.7
193.4565 1.7
193.4858 1.7
193.5192 1.7
193.5525 1.95
193.5821 1.95
193.6111 2.15
193.6443 2.15
193.6776 2.15
193.7069 2.15
193.7372 2.15
193.7672 2.15
193.8005 2.15
193.8338 2.15
193.8671 2.15
193.8973 2.15
193.9267 2.15
193.9581 2.15
193.9914 2.15
194.0246 2.15
194.0573 2.15
194.0885 2.15
194.1187 2.15
194.1521 2.15
194.1818 2.15
194.2122 2.15
194.2424 2.15
194.2709 2.15
194.3042 2.15
194.3351 2.15
194.3672 2.15
194.3965 2.15
194.428 2.15
194.4614 2.15
194.4947 2.15
194.5244 2.15
194.5571 2.15
194.5897 2.15
194.623 2.15
194.6564 2.15
194.6857 2.15
194.7141 2.15
194.7472 2.15
194.7805 2.15
194.8139 1.7
194.8469 1.7
194.8801 1.3
194.9122 0.65
194.9455 0.65
194.9789 0.65
195.0081 0.85
195.037 0.85
195.067 1.3
195.1003 1.3
195.1337 1.3
195.1665 1.3
195.1974 1.3
195.2295 1.3
195.2629 1.3
195.291 1.3
195.3236 1.3
195.3569 1.5
195.3878 1.5
195.4211 1.5
195.4544 1.7
195.4836 1.7
195.5129 1.7
195.5414 1.7
195.5748 1.7
195.6081 1.7
195.6414 1.7
195.6735 1.7
195.7068 1.95
195.7401 1.95
195.7735 1.95
195.8007 2.15
195.8333 2.15
195.8623 2.15
195.8956 2.15
195.9261 2.15
195.9587 2.15
195.9881 2.15
196.0191 2.15
196.0524 2.15
196.0857 2.15
196.1141 2.15
196.1474 2.15
196.1785 2.15
196.2118 2.15
196.2437 2.15
196.2731 2.15
196.3023 2.15
196.3356 2.15
196.369 2.15
196.4023 2.15
196.4356 2.15
196.469 2.15
196.5007 2.15
196.534 2.15
196.5637 2.15
196.5937 2.15
196.6252 2.15
196.6562 2.15
196.6895 2.15
196.7219 2.15
196.7553 2.15
196.7839 2.15
196.8145 2.15
196.8479 2.15
196.8783 2.15
196.9102 2.15
196.94 2.15
196.9705 2.15
197.0038 2.15
197.0371 2.15
197.0705 2.15
197.1008 2.15
197.1306 2.15
197.1639 2.15
197.1927 2.15
197.2224 2.15
197.2545 2.15
197.2879 2.15
197.3212 2.15
197.3545 2.15
197.3836 2.15
197.4138 2.15
197.4469 2.15
197.4802 2.15
197.5118 2.15
197.542 2.15
197.5733 2.15
197.6036 2.15
197.637 2.15
197.6692 2.15
197.6978 2.15
197.7275 2.15
197.7558 2.15
197.7891 2.15
197.82 2.15
197.8533 2.15
197.8835 2.15
197.9169 2.15
197.9502 2.15
197.9835 2.15
198.012 2.15
198.0418 2.15
198.0707 2.15
198.104 2.15
198.1322 2.15
198.1624 2.15
198.1934 2.15
198.2243 2.15
198.2577 2.15
198.2875 2.15
198.3176 2.15
198.348 2.15
198.3766 2.15
198.4099 2.15
198.4387 2.15
198.4698 2.15
198.4999 2.15
198.5301 2.15
198.5634 2.15
198.5968 2.15
198.6301 2.15
198.6612 2.15
198.69 2.15
198.7234 2.15
198.7525 2.15
198.7825 2.15
198.8145 1.95
198.8479 1.95
198.8812 1.95
198.9145 1.95
198.9462 1.95
198.9796 1.95
199.0124 1.3
199.0458 0.65
199.0741 0.65
199.1066 0.4
199.1348 0.4
199.1664 0.4
199.1997 0.4
199.2312 0.4
199.2606 0.4
199.2939 0.4
199.3245 0.4
199.3578 0.4
199.3911 0.4
199.4237 0.4
199.4531 0.4
199.4835 0.4
199.5168 0.4
199.5491 0.4
199.5824 0.4
199.6158 0.4
199.6451 0.4
199.6785 0.4
199.7078 -0.2
199.7376 -0.2
199.7697 -0.85
199.8031 -1.5
199.8364 -1.5
199.8673 -1.7
199.8966 -1.7
199.9299 -1.7
199.9624 -1.7
199.9957 -1.7
200.0237 -1.7
200.0537 -1.7
200.0871 -1.7
200.1189 -1.7
200.1523 -1.7
200.1831 -1.7
200.2129 -1.7
200.2462 -1.7
200.2782 -1.7
200.3115 -1.7
200.3442 -1.7
200.3754 -1.7
200.4087 -1.7
200.4416 -1.7
200.475 -1.7
200.506 -1.7
200.5338 -1.7
200.5638 -1.7
200.5971 -1.7
200.6305 -1.7
200.6604 -1.7
200.6938 -1.7
200.7214 -1.7
200.7535 -1.7
200.7868 -1.7
200.8176 -1.7
200.8465 -1.7
200.8776 -1.7
200.906 -1.7
200.9393 -1.7
200.9727 -1.7
201.0027 -1.7
201.0329 -1.7
201.0663 -1.7
201.0996 -1.95
201.1329 -2.4
201.1631 -2.4
201.1941 -3.05
201.2246 -3.05
201.2579 -3.45
201.2912 -3.7
201.3246 -3.7
201.3577 -3.7
201.391 -3.7
201.4244 -3.7
201.4539 -3.7
201.4828 -3.7
201.5124 -3.7
201.5407 -3.7
201.574 -3.7
201.6033 -3.7
201.6367 -3.7
201.6678 -3.7
201.6979 -3.7
201.7313 -3.7
201.7637 -3.7
201.7922 -3.7
201.8221 -3.7
201.8507 -3.7
201.8841 -3.7
201.9128 -3.7
201.9461 -3.7
201.9767 -3.7
202.0092 -3.7
202.0426 -3.7
202.0722 -3.7
202.1056 -3.7
202.1388 -3.7
202.1679 -3.7
202.2013 -3.7
202.2335 -3.7
202.2645 -3.7
202.2978 -3.7
202.3279 -3.7
202.3612 -3.7
202.3907 -3.7
202.4201 -3.7
202.4508 -3.7
202.4835 -3.7
202.5168 -3.7
202.5464 -3.7
202.5798 -3.7
202.6087 -3.7
202.6419 -3.7
202.6752 -3.7
202.7047 -3.7
202.733 -3.7
202.7664 -3.7
202.7997 -3.7
202.833 -3.7
202.8635 -3.7
202.8941 -3.7
202.9222 -3.7
202.9515 -3.7
202.9849 -3.7
203.014 -3.7
203.0432 -3.7
203.0725 -3.7
203.1054 -3.7
203.1387 -3.7
203.1689 -3.7
203.2 -3.7
203.2314 -3.7
203.2624 -3.7
203.2957 -3.7
203.326 -3.7
203.3575 -3.7
203.3884 -3.7
203.4191 -3.7
203.4524 -3.7
203.4836 -3.7
203.5169 -3.7
203.5466 -3.7
203.5784 -3.7
203.6118 -3.7
203.6422 -3.7
203.6744 -3.7
203.7046 -3.7
203.7379 -3.7
203.7712 -3.7
203.8028 -3.7
203.8317 -3.7
203.8599 -3.7
203.892 -3.7
203.9253 -3.7
203.9586 -3.7
203.9872 -3.7
204.0168 -3.7
204.0481 -3.7
204.0815 -3.7
204.1118 -3.7
204.1451 -3.7
204.1731 -3.7
204.2065 -3.7
204.2398 -3.7
204.2699 -3.7
204.2995 -3.7
204.3328 -3.7
204.3656 -3.7
204.3989 -3.7
204.4294 -3.7
204.4628 -3.7
204.4961 -3.7
204.5294 -3.7
204.5628 -3.7
204.5961 -3.7
204.6252 -3.7
204.656 -3.7
204.6879 -3.7
204.7212 -3.7
204.7504 -3.7
204.7809 -3.7
204.8141 -3.7
204.8438 -3.7
204.8771 -3.7
204.9104 -3.7
204.9429 -3.7
204.9727 -3.7
205.0048 -3.7
205.0381 -3.7
205.0715 -3.7
205.1048 -3.7
205.1336 -3.7
205.1665 -3.7
205.1999 -3.7
205.2332 -3.7
205.2625 -3.7
205.2935 -3.7
205.3247 -3.7
205.358 -3.7
205.3869 -3.7
205.4202 -3.7
205.4514 -3.7
205.4812 -3.7
205.5145 -3.7
205.5453 -3.7
205.5735 -3.7
205.6057 -3.7
205.6365 -3.7
205.6699 -3.7
205.7032 -3.7
205.733 -3.7
205.7628 -3.7
205.795 -3.7
205.8283 -3.7
205.859 -3.7
205.8885 -3.7
205.9215 -3.7
205.9496 -3.7
205.983 -3.7
206.0122 -3.7
206.0414 -3.7
206.0724 -3.7
206.1039 -3.7
206.1372 -3.7
206.1682 -3.7
206.1982 -3.7
206.2302 -3.7
206.2619 -3.7
206.2952 -3.7
206.3285 -3.7
206.3608 -3.7
206.3911 -3.7
206.4218 -3.7
206.4552 -3.7
206.4846 -3.7
206.5137 -3.7
206.5428 -3.7
206.5739 -3.7
206.6072 -3.7
206.6379 -3.7
206.6712 -3.7
206.7046 -3.7
206.7355 -3.7
206.7688 -3.7
206.7984 -3.7
206.8278 -3.7
206.8582 -3.7
206.887 -3.7
206.9203 -3.7
206.9524 -3.7
206.9857 -3.7
207.014 -3.7
207.0443 -3.7
207.0776 -3.7
207.1077 -3.7
207.1383 -3.7
207.1694 -3.7
207.2027 -3.7
207.236 -3.7
207.2693 -3.7
207.3027 -3.7
207.333 -3.7
207.363 -3.7
207.3964 -3.7
207.4271 -3.7
207.4578 -3.7
207.4904 -3.7
207.5186 -3.7
207.552 -3.7
207.5826 -3.7
207.6159 -3.7
207.648 -3.7
207.6813 -3.7
207.7147 -3.7
207.7438 -3.7
207.7739 -3.7
207.8051 -3.7
207.8384 -3.7
207.8718 -3.7
207.901 -3.7
207.9344 -3.7
207.9659 -3.7
207.9957 -3.7
208.029 -3.7
208.0603 -3.7
208.0914 -3.7
208.1206 -3.7
208.1502 -3.7
208.1835 -3.7
208.216 -3.7
208.2493 -3.7
208.28 -3.7
208.3133 -3.9
208.3466 -4.15
208.3792 -4.15
208.4085 -4.35
208.4381 -4.8
208.4671 -4.8
208.5004 -5
208.529 -5
208.5588 -5
208.5879 -5.2
208.6175 -5.2
208.6508 -5.2
208.6842 -5.45
208.7127 -5.45
208.7436 -5.45
208.7735 -5.45
208.8069 -5.65
208.8402 -5.65
208.8732 -5.65
208.902 -5.65
208.9337 -5.65
208.967 -5.65
208.9972 -5.65
209.0253 -5.65
209.0551 -5.65
209.0861 -5.85
209.1194 -5.85
209.1528 -5.85
209.185 -6.1
209.2154 -6.55
209.2459 -6.55
209.2792 -6.55
209.309 -6.55
209.3375 -6.55
209.3688 -6.55
209.3975 -6.55
209.4308 -6.55
209.4594 -6.75
209.4895 -6.75
209.518 -6.75
209.5476 -6.75
209.581 -6.75
209.6143 -6.75
209.6441 -6.75
209.6739 -6.75
209.7028 -6.75
209.7361 -6.75
209.7694 -6.75
209.8027 -6.75
209.8344 -6.75
209.8677 -6.75
209.901 -6.75
209.9305 -6.75
209.9611 -6.75
209.9904 -6.75
210.0196 -6.75
210.0529 -6.75
210.082 -6.95
210.1142 -6.95
210.1425 -6.95
210.173 -6.95
210.2064 -7.2
210.2395 -7.2
210.2682 -7.2
210.3001 -7.2
210.3303 -7.2
210.3636 -7.2
210.3927 -7.2
210.425 -7.4
210.4571 -7.4
210.4904 -7.4
210.5238 -7.6
210.5531 -7.6
210.5858 -7.6
210.6151 -7.6
210.6433 -7.6
210.6766 -7.85
210.7059 -7.85
210.7387 -7.85
210.7669 -8.05
210.7973 -8.05
210.8306 -8.3
210.8631 -8.7
210.8964 -8.7
210.9283 -8.95
210.9587 -9.15
210.9921 -9.15
211.022 -9.15
211.0515 -9.15
211.0812 -9.15
211.1114 -9.15
211.1447 -9.15
211.178 -9.15
211.206 -9.15
211.2353 -9.15
211.2644 -9.15
211.2977 -9.15
211.3276 -9.15
211.3586 -9.15
211.3919 -9.15
211.4225 -9.15
211.4558 -9.15
211.4852 -9.15
211.5185 -9.15
211.5476 -9.35
211.5786 -9.6
211.6119 -9.6
211.6407 -9.8
211.6708 -9.8
211.7001 -9.8
211.7323 -9.8
211.7656 -9.8
211.7986 -9.8
211.8283 -9.8
211.8577 -9.8
211.8877 -9.8
211.921 -9.8
211.9495 -9.8
211.9827 -9.8
212.0142 -9.8
212.0476 -9.8
212.0809 -9.8
212.1142 -9.8
212.1474 -9.8
212.1777 -9.8
212.2073 -9.8
212.2406 -9.8
212.271 -9.8
212.3025 -9.8
212.333 -9.8
212.363 -10
212.3963 -10.25
212.4267 -10.25
212.4548 -10.25
212.4882 -10.25
212.516 -10.25
212.5494 -10.45
212.5777 -10.45
212.611 -10.45
212.6443 -10.45
212.6739 -10.45
212.7073 -10.45
212.738 -10.45
212.7675 -10.45
212.7967 -10.45
212.8264 -10.45
212.8598 -10.45
212.8931 -10.45
212.9252 -10.45
212.9573 -10.45
212.9876 -10.45
213.0209 -10.45
213.0512 -10.45
213.0827 -10.45
213.1121 -10.45
213.1401 -10.45
213.1734 -10.45
213.2031 -10.45
213.2336 -10.45
213.2652 -10.45
213.2948 -10.45
213.3282 -10.45
213.3584 -10.45
213.3878 -10.45
213.4184 -10.45
213.4517 -10.45
213.4851 -10.45
213.5142 -10.45
213.5441 -10.45
213.5726 -10.45
213.6042 -10.45
213.6376 -10.45
213.6665 -10.7
213.6956 -10.7
213.7262 -10.9
213.7565 -11.1
213.7898 -11.1
213.8187 -11.35
213.8485 -11.35
213.8762 -11.35
213.9062 -11.35
213.9395 -11.55
213.9728 -11.55
214.0017 -11.55
214.035 -11.55
214.0663 -11.55
214.0996 -11.55
214.1288 -11.55
214.1587 -11.55
214.1917 -11.55
214.2225 -11.55
214.2559 -11.55
214.286 -11.55
214.3166 -11.55
214.3492 -11.55
214.3793 -11.55
214.4126 -11.55
214.4444 -11.55
214.4778 -11.55
214.5081 -11.55
214.5413 -11.55
214.5746 -11.35
214.6079 -11.35
214.6397 -11.1
214.673 -11.1
214.7064 -11.1
214.7397 -11.1
214.772 -11.1
214.8051 -11.1
214.833 -11.1
214.864 -11.1
214.8974 -11.1
214.9284 -11.1
214.9594 -11.1
214.9897 -11.1
215.0231 -11.1
215.0564 -11.1
215.0888 -11.1
215.1216 -11.1
215.1549 -11.1
215.1882 -11.1
215.2215 -11.1
215.2509 -11.1
215.2842 -11.1
215.3129 -10.9
215.3435 -10.7
215.3769 -10.7
215.4054 -10
215.4387 -9.35
215.4721 -9.35
215.5026 -8.5
215.5359 -7.4
215.5669 -7.4
215.5964 -6.3
215.6269 -5
215.6558 -5
215.6891 -3.7
215.7223 -3.7
215.7525 -2.6
215.7813 -1.5
215.8128 -1.5
215.8461 0
215.8781 1.5
215.9075 1.5
215.9363 2.6
215.9668 2.6
216.0001 3.45
216.0334 4.55
216.0652 4.55
216.0985 5.45
216.1295 6.1
216.1629 6.1
216.1943 6.3
216.2225 6.3
216.2559 6.3
216.2868 6.3
216.3201 6.3
216.3487 6.3
216.382 6.3
216.4154 6.3
216.4446 6.3
216.4779 6.3
216.5079 6.3
216.5389 6.3
216.5685 6.3
216.598 6.3
216.6313 6.55
216.6616 6.95
216.6916 6.95
216.7207 7.85
216.754 8.7
216.7874 9.6
216.8166 9.6
216.8463 10.7
216.8768 10.7
216.9055 11.35
216.9389 11.75
216.9684 11.75
216.9981 12
217.0283 12
217.0598 12.45
217.0931 13.1
217.1265 13.95
217.155 13.95
217.1841 14.85
217.2149 14.85
217.2482 15.9
217.2768 16.35
217.3065 16.35
217.3377 17.45
217.371 18.3
217.4043 18.3
217.4355 19.2
217.4641 19.85
217.4937 19.85
217.5263 20.95
217.5596 22.25
217.5929 22.25
217.6224 23.55
217.6533 24.9
217.6862 24.9
217.7196 26.65
217.7505 27.95
217.7837 27.95
217.8147 29.05
217.8455 30.1
217.8789 30.1
217.9083 30.8
217.9374 31.2
217.967 31.2
217.999 31.65
218.0323 32.1
218.0641 32.1
218.0974 33.2
218.1274 34.25
218.1592 34.25
218.1926 35.15
218.2221 35.8
218.2535 35.8
218.2824 36.45
218.3135 36.45
218.3468 37.55
218.3792 39.1
218.4074 41.05
218.4408 41.05
218.4741 43
218.5074 45.85
218.5363 49.35
218.5694 49.35
218.5979 52.4
218.6288 52.4
218.6622 56.75
218.6955 60.25
218.7288 64.85
218.7595 64.85
218.7886 68.15
218.8219 70.95
218.8511 70.95
218.8844 72.5
218.9128 72.5
218.9462 74.05
218.9795 75.8
219.0119 75.8
219.0452 78.2
219.0743 80.8
219.1062 80.8
219.1396 84.5
219.1729 88.45
219.2063 92.8
219.2396 92.8
219.2729 95.85
219.3018 99.35
219.332 99.35
219.3616 102.65
219.3949 104.85
219.4283 104.85
219.4584 107.45
219.4904 109.2
219.5212 109.2
219.5501 111.4
219.5835 113.8
219.6166 113.8
219.6468 115.55
219.6758 115.55
219.7092 117.05
219.7425 117.7
219.7734 118.6
219.8016 118.6
219.8318 119.7
219.8613 122.1
219.8947 122.1
219.9241 124.25
219.9538 124.25
219.9872 126.45
220.0205 128.2
220.0538 129.3
220.0839 129.3
220.1134 131.05
220.1438 131.05
220.175 133
220.2083 135
220.239 135
220.2714 136.95
220.3025 138.9
220.3358 138.9
220.3692 140.85
220.3996 142.6
220.4328 142.6
220.4627 144.6
220.4914 147
220.5248 147
220.5544 149.15
220.5873 150.5
220.6179 150.5
220.6513 151.8
220.6846 153.3
220.7179 153.3
220.7513 155.05
220.7824 156.6
220.8119 156.6
220.8452 158.8
220.8759 160.3
220.9092 160.3
220.9404 161.85
220.9703 163.15
221.0036 163.15
221.0355 163.8
221.0688 164.45
221.0986 164.45
221.1277 164.9
221.161 166.2
221.1926 166.2
221.2226 167.5
221.2559 168.6
221.2892 168.6
221.3226 169.95
221.3559 170.6
221.3854 170.6
221.417 171
221.4456 171.45
221.479 171.45
221.5101 171.65
221.54 171.65
221.5697 171.65
221.6008 171.65
221.6342 171.65
221.6674 171.65
221.6973 171.65
221.7307 171.65
221.7596 171.65
221.793 171.65
221.8263 171.65
221.8568 171.65
221.8876 171.65
221.9204 171.65
221.9537 172.35
221.987 173.65
222.0169 173.65
222.0503 174.95
222.0791 176.9
222.1124 176.9
222.1457 178.9
222.1775 180.65
222.2072 180.65
222.2377 182.4
222.271 183.7
222.3043 183.7
222.3333 184.8
222.3631 185.45
222.3916 185.45
222.4249 185.85
222.4559 186.1
222.4858 186.1
222.5141 186.3
222.5458 186.3
222.5791 186.3
222.6089 186.3
222.6385 186.3
222.6703 186.3
222.6988 186.3
222.7322 186.3
222.7634 186.3
222.7955 186.3
222.8289 186.3
222.8599 186.3
222.8932 186.3
222.9265 186.3
222.9563 186.3
222.9875 186.75
223.0174 186.75
223.0507 188.05
223.0793 188.05
223.1112 188.95
223.144 190
223.1766 190
223.2099 190.9
223.2409 191.55
223.2743 191.55
223.3076 191.55
223.3377 191.55
223.371 191.55
223.4001 191.55
223.4302 191.55
223.4636 191.55
223.4969 191.55
223.5302 191.55
223.5604 191.55
223.5901 191.55
223.6219 191.55
223.6508 191.55
223.6842 191.75
223.7137 191.75
223.7465 192
223.7772 192.85
223.8103 192.85
223.8436 193.75
223.877 194.15
223.9063 194.15
223.9363 194.85
223.9697 195.9
224.003 196.6
224.0344 196.6
224.0668 197.25
224.1001 197.65
224.133 197.65
224.1664 198.1
224.1997 198.75
224.233 198.75
224.2623 199.2
224.2918 199.2
224.3251 199.85
224.3584 200.5
224.3895 200.95
224.4185 200.95
224.4518 200.95
224.4851 200.95
224.5185 201.15
224.5477 201.6
224.5797 201.6
224.6086 202.25
224.642 202.9
224.6753 202.9
224.7055 203.55
224.7369 204
224.7702 204
224.8035 204.2
224.8347 204.45
224.8653 204.45
224.8957 204.45
224.9268 204.45
224.9601 204.45
224.9899 204.45
225.0204 204.45
225.0491 204.45
225.0794 204.45
225.1128 204.45
225.1448 204.45
225.1765 204.45
225.206 204.45
225.234 204.45
225.2674 204.45
225.2992 204.45
225.3283 204.45
225.3567 204.45
225.39 204.45
225.4234 204.45
225.4545 204.45
225.4845 204.45
225.5145 204.45
225.5423 204.45
225.5756 204.45
225.6059 204.45
225.6392 204.45
225.6673 204.45
225.7006 204.45
225.7339 204.45
225.764 204.45
225.7932 204.45
225.8265 204.45
225.8555 204.45
225.8888 204.45
225.9179 204.45
225.9512 204.45
225.9814 204.45
226.0147 204.45
226.048 204.45
226.0814 204.45
226.1097 204.45
226.1431 204.45
226.1719 204.45
226.2052 204.45
226.2332 204.45
226.2629 204.45
226.2931 204.45
226.3264 204.65
226.3598 204.65
226.3929 204.65
226.4218 204.65
226.4514 204.65
226.4797 204.65
226.513 204.65
226.5463 204.65
226.5773 204.65
226.6068 204.65
226.6401 204.65
226.6734 204.65
226.7049 204.65
226.7333 204.65
226.7644 204.65
226.7943 204.65
226.8277 204.65
226.8553 204.65
226.8871 204.65
226.9181 204.65
226.9515 204.65
226.9848 204.65
227.0175 204.65
227.049 204.65
227.0788 204.65
227.1104 204.65
227.1437 204.65
227.1729 204.65
227.2031 204.65
227.2344 204.9
227.2659 205.3
227.2992 205.3
227.3326 205.75
227.3638 205.95
227.3952 205.95
227.4236 206.4
227.4569 206.65
227.4879 206.65
227.5195 206.65
227.5476 206.65
227.5787 206.85
227.612 206.85
227.6454 206.85
227.6766 206.85
227.7068 206.85
227.7358 206.85
227.7691 206.85
227.7973 206.85
227.8267 206.85
227.8548 206.85
227.8849 206.85
227.9182 206.85
227.9515 206.85
227.9848 207.05
228.0173 207.05
228.046 207.05
228.0793 207.05
228.1082 207.05
228.1382 207.05
228.1698 207.05
228.2019 207.05
228.2352 207.05
228.2642 207.05
228.2925 207.05
228.3243 207.05
228.3568 207.05
228.3901 207.05
228.4178 207.05
228.4484 207.05
228.4796 207.05
228.5129 207.05
228.5463 207.05
228.5753 207.05
228.6076 207.05
228.64 207.05
228.6706 207.05
228.7039 207.05
228.7373 207.05
228.7668 207.05
228.7964 207.05
228.8262 207.05
228.8595 207.05
228.8918 207.05
228.9228 207.05
228.9543 207.05
228.9832 207.05
229.0166 207.05
229.0462 207.05
229.0795 207.05
229.1082 207.05
229.1415 207.05
229.1749 207.05
229.2062 207.05
229.2349 207.05
229.2682 207.05
229.2993 207.05
229.3326 207.05
229.3605 207.05
229.3894 207.05
229.4179 207.05
229.4502 207.05
229.4836 207.05
229.5146 207.05
229.5441 207.05
229.576 207.05
229.6053 207.05
229.6386 207.05
229.6669 207.05
229.6976 207.05
229.7255 207.05
229.7588 207.05
229.7921 207.05
229.823 207.05
229.8517 207.05
229.8808 207.05
229.9109 207.05
229.9443 207.05
229.9731 207.3
230.0028 207.3
230.0304 207.3
230.0601 207.5
230.0934 207.5
230.1225 207.5
230.1531 207.5
230.1864 207.5
230.2148 207.5
230.2481 207.5
230.2763 207.5
230.3058 207.5
230.3337 207.5
230.3638 207.5
230.3971 207.5
230.4264 207.5
230.4568 207.5
230.4901 207.5
230.5198 207.5
230.5531 207.5
230.5836 207.5
230.6142 207.5
230.6427 207.5
230.6741 207.5
230.7075 207.5
230.7408 207.5
230.7741 207.5
230.8075 207.5
230.8357 207.5
230.869 207.5
230.8976 207.5
230.9266 207.5
230.96 207.5
230.9893 207.5
231.0226 207.5
231.0527 207.5
231.0835 207.5
231.1147 207.5
231.148 207.5
231.1813 207.5
231.213 207.5
231.2424 207.5
231.2711 207.5
231.3042 207.5
231.3376 207.5
231.3709 207.5
231.3997 207.5
231.4331 207.5
231.4646 207.5
231.4979 207.5
231.5273 207.5
231.5591 207.7
231.5924 207.7
231.6246 207.95
231.658 208.8
231.6913 208.8
231.7191 209.25
231.7483 210.1
231.778 210.1
231.8113 211
231.8405 211
231.8714 211.65
231.8998 212.1
231.9308 212.1
231.9641 212.5
231.9943 212.5
232.0226 212.5
232.0531 212.5
232.0845 212.5
232.1178 212.5
232.1472 212.5
232.1794 212.5
232.2127 212.5
232.2426 212.5
232.276 212.5
232.3064 212.5
232.334 212.5
232.3646 212.5
232.3936 212.5
232.427 212.5
232.457 212.5
232.4869 212.5
232.5171 212.5
232.5504 212.5
232.5838 212.5
232.6145 212.5
232.6444 212.5
232.6773 212.5
232.7071 212.5
232.7404 212.5
232.7692 212.5
232.798 212.5
232.8289 212.5
232.8603 212.5
232.8936 212.5
232.9229 212.5
232.9518 212.5
232.9851 212.5
233.017 212.5
233.0503 212.5
233.0836 212.5
233.1137 212.75
233.1462 212.75
233.1762 212.95
233.2095 213.4
233.2429 213.4
233.272 213.4
233.3053 213.4
233.3334 213.4
233.3667 213.4
233.4001 213.4
233.43 213.4
233.4629 213.4
233.4938 213.4
233.5271 213.4
233.5584 213.4
233.5882 213.4
233.6215 213.4
233.6534 213.4
233.6867 213.4
233.7157 213.4
233.749 213.4
233.7779 213.4
233.8112 213.4
233.8445 213.4
233.8751 213.4
233.9043 213.4
233.9365 213.4
233.9649 213.4
233.9982 213.4
234.0262 213.4
234.0557 213.4
234.0836 213.4
234.1169 213.4
234.1503 213.4
234.181 213.4
234.211 213.4
234.2416 213.4
234.27 213.4
234.3034 213.4
234.3326 213.6
234.366 214.05
234.394 214.05
234.4273 214.7
234.4606 215.6
234.49 215.6
234.5232 216
234.5565 216
234.5874 216.9
234.6207 217.55
234.654 218
234.6874 218
234.717 218
234.7471 218.4
234.7804 218.4
234.8138 218.2
234.844 218.2
234.8748 218.2
234.9055 218.2
234.9388 218.2
234.9662 218.2
234.9964 218.2
235.0248 218.2
235.0556 218.2
235.0889 218.2
235.121 218.2
235.1502 218.2
235.1808 218.2
235.2126 218.2
235.246 218.2
235.2793 218.2
235.3126 218.2
235.3427 218.2
235.3742 218.2
235.4075 218.2
235.4367 218.2
235.4701 218.2
235.4998 218.2
235.5281 218.2
235.5614 218.2
235.5927 218.2
235.6227 218.2
235.6519 218.2
235.6847 218.2
235.718 218.2
235.7513 218.2
235.783 218.2
235.8136 218.2
235.8434 218.2
235.8767 218.2
235.9057 218.2
235.9391 218.2
235.971 218.2
236.0043 218.2
236.0376 218.2
236.0696 218.2
236.0988 218.2
236.1321 218.2
236.1644 218.2
236.1977 218.2
236.229 218.2
236.2615 218.2
236.2896 218.2
236.3228 218.2
236.3561 218.2
236.3858 218.2
236.4192 218.2
236.4525 218.2
236.4818 218.2
236.5152 218.2
236.5458 218.2
236.5766 218.2
236.6046 218.2
236.6373 218.2
236.6707 218.2
236.704 218.2
236.7363 218.2
236.7684 218.2
236.8017 218.2
236.8351 218.2
236.8684 218.2
236.9012 218.2
236.9326 218.2
236.966 218.2
236.9993 218.2
237.0306 218.2
237.06 218.2
237.0918 218.2
237.1223 218.2
237.1557 218.2
237.1851 218.2
237.2184 218.2
237.2475 218.2
237.2773 218.2
237.3107 218.2
237.3397 218.2
237.3691 218.2
237.4006 218.2
237.4317 218.2
237.465 218.2
237.4983 218.2
237.5285 218.2
237.557 218.2
237.587 218.2
237.6204 218.2
237.6493 218.2
237.6785 218.2
237.7113 218.2
237.741 218.2
237.7743 218.2
237.8034 218.2
237.8335 218.2
237.863 218.2
237.8922 218.2
237.9256 218.2
237.9589 218.2
237.9888 218.2
238.0184 218.2
238.047 218.2
238.0804 218.2
238.1137 218.2
238.1433 218.2
238.1727 218.2
238.202 218.2
238.2353 218.2
238.2656 218.2
238.2963 218.2
238.327 218.2
238.358 218.2
238.3914 218.2
238.4246 218.2
238.4579 218.2
238.4867 218.2
238.5163 218.2
238.5496 218.4
238.5798 218.4
238.6132 218.4
238.6419 218.4
238.6703 218.4
238.7036 218.4
238.7343 218.4
238.7648 218.4
238.7962 218.4
238.8293 218.4
238.8626 218.4
238.8934 218.4
238.9267 218.4
238.9555 218.4
238.9886 218.4
239.0219 218.4
239.0498 218.4
239.0826 218.4
239.1119 218.4
239.1438 218.4
239.1771 218.4
239.2097 218.4
239.2381 218.4
239.2672 218.4
239.2952 218.4
239.3286 218.4
239.3619 218.4
239.3922 218.4
239.4221 218.4
239.4516 218.4
239.485 218.4
239.5154 218.4
239.5451 218.4
239.5784 218.4
239.6078 218.4
239.6411 218.4
239.673 218.4
239.702 218.4
239.7297 218.4
239.7594 218.4
239.7928 218.4
239.8247 218.4
239.8553 218.4
239.8857 218.4
239.9184 218.4
239.9518 218.4
239.9851 218.4
240.0184 218.4
240.0468 218.4
240.0775 218.4
240.1108 218.4
240.1399 218.4
240.1732 218.4
240.2026 218.4
240.2311 218.4
240.2645 218.4
240.2941 218.4
240.3274 218.4
240.3576 218.4
240.3877 218.4
240.421 218.4
240.4521 218.4
240.4854 218.4
240.5188 218.4
240.5497 218.4
240.5831 218.4
240.6122 218.4
240.643 218.4
240.6715 218.4
240.7012 218.4
240.7346 218.4
240.7679 218.4
240.7975 218.4
240.8282 218.4
240.8615 218.4
240.8949 218.4
240.9243 218.4
240.9576 218.4
240.991 218.4
241.0243 218.4
241.0576 218.4
241.0867 218.4
241.1191 218.4
241.1504 218.4
241.1815 218.4
241.2148 218.4
241.244 218.4
241.2732 218.4
241.306 218.4
241.3371 218.4
241.3703 218.4
241.4015 218.4
241.4317 218.4
241.4627 218.4
241.4951 218.4
241.5284 218.4
241.5567 218.4
241.5874 218.4
241.618 218.4
241.6497 218.4
241.6831 218.4
241.7122 218.4
241.7417 218.4
241.7746 218.4
241.8056 218.4
241.839 218.4
241.8723 218.4
241.9056 218.4
241.939 218.4
241.9723 218.4
242.0056 218.4
242.0374 218.4
242.0708 218.4
242.1021 218.4
242.1353 218.4
242.1686 218.4
242.202 218.4
242.2319 218.4
242.2653 218.4
242.2962 218.4
242.3295 218.4
242.3612 218.4
242.3894 218.4
242.4188 218.4
242.4478 218.4
242.4811 218.4
242.5145 218.4
242.5464 218.4
242.5797 218.4
242.6131 218.4
242.6464 218.4
242.6762 218.4
242.7064 218.4
242.7394 218.4
242.7705 218.4
242.8038 218.4
242.8372 218.4
242.8705 218.4
242.9038 218.4
242.9366 218.4
242.9699 218.4
243.0032 218.4
243.0326 218.4
243.0643 218.4
243.0951 218.4
243.1284 218.4
243.1603 218.4
243.1887 218.4
243.2189 218.4
243.2483 218.4
243.2816 218.4
243.315 218.4
243.3425 218.4
243.3758 218.4
243.4092 218.4
243.4425 218.4
243.4753 218.4
243.5052 218.4
243.5341 218.4
243.5675 218.4
243.6008 218.4
243.6298 218.4
243.6631 218.4
243.6945 218.4
243.7252 218.4
243.7585 218.4
243.7863 218.4
243.8153 218.4
243.8448 218.4
243.8742 218.4
243.9076 218.4
243.9396 218.4
243.9689 218.2
243.9995 218.2
244.0308 218.2
244.0641 217.75
244.0921 216.65
244.1238 216.65
244.1532 214.7
244.1833 214.7
244.2166 212.5
244.2458 211
244.2767 211
244.3088 209.45
244.3398 208.8
244.3732 208.8
244.4065 208.6
244.4383 208.6
244.4669 208.6
244.4988 208.6
244.5322 208.6
244.5614 208.6
244.5905 208.6
244.6209 208.15
244.652 208.15
244.6853 207.5
244.7186 206.4
244.7475 206.4
244.7748 205.75
244.8076 205.75
244.8409 203.55
244.8694 202.05
244.8983 200.5
244.9273 200.5
244.9555 199.4
244.9888 198.1
245.0219 198.1
245.0519 197.65
245.0808 197.65
245.1127 196.8
245.146 195.5
245.1758 195.5
245.2037 193.3
245.2332 190.45
245.261 190.45
245.2944 186.95
245.3267 186.95
245.3564 183.25
245.385 180.4
245.4165 180.4
245.4498 176.5
245.4832 173.65
245.5165 173.65
245.5498 169.95
245.5824 166.85
245.6157 166.85
245.6439 163.35
245.6773 161.4
245.7075 161.4
245.7368 159
245.7702 157.05
245.802 157.05
245.8312 155.75
245.8602 155.75
245.8897 153.55
245.9231 150.5
245.9536 150.5
245.9863 146.1
246.016 140.45
246.0493 140.45
246.0826 133.45
246.1119 126.45
246.1417 126.45
246.175 117.05
246.2059 117.05
246.2393 107
246.2697 100.7
246.299 100.7
246.3323 93.25
246.365 86.9
246.3983 86.9
246.428 80.8
246.455 76.45
246.4884 76.45
246.5184 71.4
246.5517 69
246.5824 69
246.613 66.15
246.6448 66.15
246.6781 63.3
246.7115 61.35
246.7448 60.9
246.7781 60.9
246.8114 60.9
246.8409 61.15
246.8743 61.15
246.9076 61.15
246.9404 60.9
246.9738 60.9
247.0041 60.7
247.0375 59.6
247.0698 59.6
247.0983 57.85
247.1275 55.45
247.1558 55.45
247.1891 50.85
247.2173 50.85
247.2506 45
247.2792 30.55
247.3089 30.55
247.3422 19.65
247.3729 8.5
247.406 8.5
247.4393 0.4
247.4688 0.4
247.5022 -12.45
247.5305 -18.75
247.5617 -18.75
247.5931 -25.3
247.6264 -32.3
247.6597 -32.3
247.6895 -38
247.7172 -45.4
247.7473 -45.4
247.7759 -53.7
247.8092 -58.95
247.8373 -58.95
247.8689 -65.05
247.8997 -65.05
247.9331 -73.35
247.9664 -80.15
247.9985 -87.8
248.0318 -87.8
248.0615 -94.15
248.0925 -94.15
248.1258 -97.6
248.1552 -98.5
248.1847 -98.5
248.2138 -98.5
248.2472 -98.3
248.2805 -98.3
248.3122 -97.85
248.3455 -97.85
248.3759 -97.85
248.4065 -97.85
248.4398 -97.85
248.4732 -97.85
248.5065 -97.85
248.5356 -98.05
248.5688 -98.05
248.6021 -99.15
248.6314 -101.55
248.6621 -101.55
248.6954 -104.85
248.7288 -108.3
248.7621 -108.3
248.7924 -112.7
248.8257 -115.95
248.859 -115.95
248.8908 -119.05
248.9241 -120.8
248.9574 -120.8
248.9878 -121.2
249.0182 -121.2
249.0507 -121.2
249.084 -121.2
249.1173 -121
249.148 -121
249.1813 -120.8
249.2117 -119.7
249.245 -119.7
249.2746 -118.15
249.3041 -115.75
249.3353 -115.75
249.364 -114
249.3974 -114
249.4257 -111.8
249.4574 -110.5
249.4908 -110.5
249.5202 -109.4
249.5535 -109
249.583 -109
249.613 -108.75
249.6445 -107.9
249.6778 -107.9
249.7112 -106.35
249.7445 -105.25
249.7778 -104.85
249.8074 -104.85
249.8374 -104.85
249.8707 -104.85
249.9015 -104.85
249.9324 -104.85
249.9624 -104.85
249.9902 -104.85
250.0235 -104.85
250.0545 -104.85
250.0846 -104.85
250.1145 -104.85
250.1444 -104.85
250.1777 -105.25
250.2076 -106.35
250.2363 -106.35
250.2696 -107.65
250.3018 -107.65
250.3352 -108.55
250.3645 -109.2
250.3951 -109.2
250.4284 -109.4
250.4587 -109.4
250.492 -109.4
250.5253 -109.4
250.5564 -109.2
250.586 -109.2
250.6181 -108.55
250.6514 -107.45
250.6847 -106.6
250.7181 -106.6
250.7495 -106.35
250.7787 -106.6
250.8121 -106.6
250.8442 -106.8
250.8775 -107.25
250.9109 -107.25
250.9423 -107.45
250.9756 -107.45
251.0089 -107.45
251.0423 -107.25
251.0724 -106.35
251.1055 -106.35
251.1389 -104.85
251.1712 -103.1
251.1995 -103.1
251.2318 -101.75
251.2651 -101.35
251.2984 -101.1
251.3277 -101.1
251.3586 -101.1
251.3892 -101.1
251.4225 -101.1
251.4558 -101.55
251.4848 -101.55
251.5175 -102.85
251.5475 -105.5
251.5777 -105.5
251.611 -109
251.6443 -111.8
251.6777 -111.8
251.7081 -114.9
251.7384 -118.15
251.7717 -118.15
251.8044 -121.65
251.8333 -126.45
251.8637 -126.45
251.8946 -131.7
251.9279 -135.85
251.9573 -135.85
251.989 -140.85
252.0215 -140.85
252.0531 -144.8
252.0864 -148.3
252.1172 -148.3
252.1466 -151.15
252.1758 -154.65
252.2052 -154.65
252.2385 -157.5
252.2712 -161.65
252.302 -161.65
252.3349 -165.55
252.3651 -169.7
252.3984 -169.7
252.4291 -173.2
252.4586 -173.2
252.4891 -176.7
252.5189 -181.05
252.5522 -181.05
252.5851 -185.2
252.614 -188.3
252.6418 -188.3
252.6721 -191.75
252.7054 -191.75
252.7368 -194.4
252.7649 -196.6
252.7962 -196.6
252.8275 -198.75
252.8608 -201.8
252.8909 -201.8
252.9243 -204.65
252.9523 -208.15
252.9843 -208.15
253.0177 -211
253.051 -214.25
253.0793 -214.25
253.1098 -217.55
253.1377 -217.55
253.171 -218.4
253.2043 -218.4
253.2351 -218.4
253.264 -218.4
253.2973 -218.4
253.3306 -218.4
253.3585 -218.4
253.3909 -218.4
253.4227 -218.4
253.456 -218.4
253.4893 -218.4
253.5186 -218.4
253.5491 -218.4
253.5788 -218.4
253.6082 -218.4
253.6416 -218.4
253.6712 -218.4
253.703 -218.4
253.7337 -218.4
253.7617 -218.4
253.795 -218.4
253.8268 -218.4
253.8601 -218.4
253.8887 -218.4
253.9196 -218.4
253.953 -218.4
253.9837 -218.4
254.0123 -218.4
254.0419 -218.4
254.0704 -218.4
254.1037 -218.4
254.1323 -218.4
254.1646 -218.4
254.1924 -218.4
254.222 -218.4
254.2554 -218.4
254.2847 -218.4
254.3138 -218.4
254.3442 -218.4
254.3768 -218.4
254.4101 -218.4
254.4409 -218.4
254.472 -218.4
254.5044 -218.4
254.5363 -218.4
254.5697 -218.4
254.6019 -218.4
254.6308 -218.4
254.6625 -218.4
254.6924 -218.4
254.7257 -218.4
254.754 -218.4
254.7874 -218.4
254.8158 -218.4
254.8451 -218.4
254.8785 -218.4
254.908 -218.4
254.9386 -218.4
254.9695 -218.4
255.0016 -218.4
255.0349 -218.4
255.0645 -218.4
255.0937 -218.4
255.127 -218.4
255.157 -218.4
255.1903 -218.4
255.2198 -218.4
255.2498 -218.4
255.2832 -218.4
255.312 -218.4
255.3454 -218.4
255.3752 -218.4
255.4076 -218.4
255.4353 -218.4
255.4686 -218.4
255.5019 -218.4
255.5337 -218.4
255.5632 -218.4
255.5952 -218.4
255.6268 -218.4
255.6601 -218.4
255.6888 -218.4
255.7199 -218.4
255.7525 -218.4
255.7827 -218.4
255.816 -218.4
255.848 -218.4
255.8792 -218.4
255.9092 -218.4
255.9374 -218.4
255.9707 -218.4
256.0018 -218.4
256.032 -218.4
256.063 -218.4
256.094 -218.4
256.1273 -218.4
256.1606 -218.4
256.1897 -218.4
256.223 -218.4
256.2545 -218.4
256.2878 -218.4
256.3181 -218.4
256.3479 -218.4
256.3766 -218.4
256.4081 -218.4
256.4415 -218.4
256.4748 -218.4
256.5081 -218.4
256.5415 -218.4
256.5723 -218.4
256.6057 -218.4
256.639 -218.4
256.6687 -218.4
256.7005 -218.4
256.7331 -218.4
256.7664 -218.4
256.7998 -218.4
256.8315 -218.4
256.8604 -218.4
256.8925 -218.4
256.9258 -218.4
256.9557 -218.4
256.9891 -218.4
257.0224 -218.4
257.0536 -218.4
257.0869 -218.4
257.1183 -218.4
257.1509 -218.4
257.1806 -218.4
257.2139 -218.4
257.2473 -218.4
257.2785 -218.4
257.3088 -218.4
257.3421 -218.4
257.3755 -218.4
257.4088 -218.4
257.4421 -218.4
257.4754 -218.4
257.5087 -218.4
257.5386 -218.4
257.572 -218.4
257.6053 -218.4
257.6383 -218.4
257.6716 -218.4
257.703 -218.4
257.7364 -218.4
257.7664 -218.4
257.7956 -218.4
257.8263 -218.4
257.8561 -218.4
257.8894 -218.4
257.9169 -218.4
257.947 -218.4
257.9776 -218.4
258.0109 -218.4
258.0443 -218.4
258.0726 -218.4
258.1026 -218.4
258.135 -218.4
258.1673 -218.4
258.2006 -218.4
258.23 -218.4
258.2633 -218.4
258.2931 -218.4
258.3233 -218.4
258.3566 -218.4
258.3899 -218.4
258.4226 -218.4
258.4537 -218.4
258.487 -218.4
258.5204 -218.4
258.5483 -218.4
258.5775 -218.4
258.6079 -218.4
258.6371 -218.4
258.6704 -218.4
258.7038 -218.4
258.7371 -218.4
258.7669 -218.4
258.7993 -218.4
258.8326 -218.4
258.861 -218.4
258.8912 -218.4
258.9245 -218.4
258.9544 -218.4
258.9878 -218.4
259.0211 -218.4
259.0488 -218.4
259.0789 -218.4
259.1111 -218.4
259.1445 -218.4
259.1776 -218.4
259.2109 -218.4
259.2401 -218.4
259.2735 -218.4
259.3068 -218.4
259.3388 -218.4
259.3691 -218.4
259.4024 -218.4
259.4358 -218.4
259.4691 -218.4
259.4987 -218.4
259.5283 -218.4
259.5571 -218.4
259.5866 -218.4
259.6199 -218.4
259.6494 -218.4
259.6784 -218.4
259.7093 -218.4
259.7424 -218.4
259.7757 -218.4
259.8061 -218.4
259.8364 -218.4
259.8645 -218.4
259.8945 -218.4
259.9279 -218.4
259.958 -218.4
259.9876 -218.4
260.0187 -218.4
260.0471 -218.4
260.0804 -218.4
260.1138 -218.4
260.146 -218.4
260.1745 -218.4
260.2054 -218.4
260.2388 -218.4
260.2721 -218.4
260.3054 -218.4
260.3357 -218.4
260.3662 -218.4
260.3996 -218.4
260.4281 -218.4
260.4577 -218.4
260.4867 -218.4
260.5157 -218.4
260.5491 -218.4
260.579 -218.4
260.6082 -218.4
260.6387 -218.4
260.6671 -218.4
260.7004 -218.4
260.733 -218.4
260.7633 -218.4
260.7931 -218.4
260.8264 -218.4
260.8598 -218.4
260.8911 -218.4
260.9245 -218.4
260.9578 -218.4
260.9872 -218.4
261.0206 -218.4
261.0504 -218.4
261.082 -218.4
261.1153 -218.4
261.1476 -218.4
261.1809 -218.4
261.2108 -218.4
261.2423 -218.4
261.2751 -218.4
261.3051 -218.4
261.3384 -218.4
261.3718 -218.4
261.4019 -218.4
261.4313 -218.4
261.4626 -218.4
261.496 -218.4
261.5258 -218.4
261.5592 -218.4
261.5925 -218.4
261.6204 -218.4
261.6538 -218.4
261.6834 -218.4
261.7168 -218.4
261.7501 -218.4
261.7834 -218.4
261.8167 -218.4
261.8501 -218.4
261.8823 -218.4
261.913 -218.4
261.9463 -218.4
261.9796 -218.4
262.0093 -218.4
262.0412 -218.4
262.0745 -218.4
262.1078 -218.4
262.1412 -218.4
262.1707 -218.4
262.1999 -218.4
262.2326 -218.4
262.2647 -218.4
262.2981 -218.4
262.326 -218.4
262.3555 -218.4
262.3888 -218.4
262.4193 -218.4
262.4526 -218.4
262.4843 -218.4
262.5144 -218.4
262.5436 -218.4
262.5749 -218.4
262.6082 -218.4
262.6364 -218.4
262.6667 -218.4
262.6965 -218.4
262.7275 -218.4
262.7608 -218.4
262.7942 -218.4
262.8259 -218.4
262.8561 -218.4
262.8873 -218.4
262.9206 -218.4
262.9496 -218.4
262.9829 -218.4
263.0125 -218.4
263.0425 -218.4
263.0759 -218.4
263.1061 -218.4
263.1354 -218.4
263.1652 -218.4
263.1976 -218.4
263.2309 -218.4
263.261 -218.4
263.291 -218.4
263.324 -218.4
263.3574 -218.4
263.3907 -218.4
263.4216 -218.4
263.4533 -218.4
263.4867 -218.4
263.5154 -218.4
263.5487 -218.4
263.5767 -218.4
263.6065 -218.4
263.6366 -218.4
263.6666 -218.4
263.7 -218.4
263.7333 -218.4
263.7635 -218.4
263.7957 -218.4
263.8273 -218.4
263.8606 -218.4
263.8929 -218.4
263.9257 -218.4
263.9546 -218.4
263.9867 -218.4
264.0201 -218.4
264.0515 -218.4
264.0828 -218.4
264.1127 -218.4
264.1455 -218.4
264.1789 -218.4
264.2072 -218.4
264.2372 -218.4
264.2668 -218.4
264.2991 -218.4
264.3324 -218.4
264.3643 -218.4
264.3956 -218.4
264.4273 -218.4
264.4596 -218.4
264.493 -218.4
264.5216 -218.4
264.5514 -218.4
264.579 -218.4
264.6112 -218.4
264.6445 -218.4
264.6779 -218.4
264.7076 -218.4
264.7373 -218.4
264.7686 -218.4
264.8019 -218.4
264.8297 -218.4
264.8631 -218.4
264.8964 -218.4
264.9261 -218.4
264.9594 -218.4
264.9927 -218.4
265.0251 -218.4
265.0584 -218.4
265.0881 -218.4
265.1214 -218.4
265.1521 -218.4
265.1855 -218.4
265.2133 -218.4
265.2466 -218.4
265.28 -218.4
265.3133 -218.4
265.3417 -218.4
265.3718 -218.4
265.4017 -218.4
265.435 -218.4
265.4643 -218.4
265.4954 -218.4
265.525 -218.4
265.5557 -218.4
265.5891 -218.4
265.6185 -218.4
265.6481 -218.4
265.6814 -218.4
265.7099 -218.4
265.7432 -218.4
265.7716 -218.4
265.8049 -218.4
265.8332 -218.4
265.8665 -218.4
265.8999 -218.4
265.9328 -218.4
265.9623 -218.4
265.9931 -218.4
266.0228 -218.4
266.0562 -218.4
266.0877 -218.4
266.117 -218.4
266.1456 -218.4
266.178 -218.4
266.2113 -218.4
266.2408 -218.4
266.269 -218.4
266.2979 -218.4
266.326 -218.4
266.3594 -218.4
266.3927 -218.4
266.4249 -218.4
266.4578 -218.4
266.4868 -218.4
266.5201 -218.4
266.5534 -218.4
266.5865 -218.4
266.618 -218.4
266.6463 -218.4
266.6797 -218.4
266.713 -218.4
266.745 -218.4
266.7763 -218.4
266.8097 -218.4
266.8377 -218.4
266.8711 -218.4
266.9044 -218.4
266.9372 -218.4
266.9673 -218.4
266.9986 -218.4
267.0319 -218.4
267.0637 -218.4
267.0948 -218.4
267.1266 -218.4
267.1567 -218.4
267.1901 -218.4
267.2191 -218.4
267.2525 -218.4
267.2821 -218.4
267.3135 -218.4
267.3468 -218.4
267.3769 -218.4
267.4067 -218.4
267.4367 -218.4
267.467 -218.4
267.5003 -218.4
267.5336 -218.4
267.5664 -218.4
267.5953 -218.4
267.6259 -218.4
267.6592 -218.4
267.6903 -218.4
267.7178 -218.4
267.7511 -218.4
267.7802 -218.4
267.8136 -218.4
267.843 -218.4
267.8751 -218.4
267.9049 -218.4
267.9383 -218.4
267.9716 -218.4
268.0037 -218.4
268.037 -218.4
268.0703 -218.4
268.1031 -218.4
268.1365 -218.4
268.166 -218.4
268.197 -218.4
268.2303 -218.4
268.2612 -218.4
268.2945 -218.4
268.3249 -218.4
268.3548 -218.4
268.3857 -218.4
268.419 -218.4
268.4523 -218.4
268.482 -218.4
268.5128 -218.4
268.5429 -218.4
268.5762 -218.4
268.6096 -218.4
268.6411 -218.4
268.6745 -218.4
268.7078 -218.4
268.7375 -218.4
268.7708 -218.4
268.7993 -218.4
268.8284 -218.4
268.8617 -218.4
268.8914 -218.4
268.9247 -218.4
268.9542 -218.4
268.982 -218.4
269.0154 -218.4
269.0468 -218.4
269.0801 -218.4
269.1134 -218.4
269.1436 -218.4
269.1726 -218.4
269.204 -218.4
269.2373 -218.4
269.2675 -218.4
269.2962 -218.4
269.3262 -218.4
269.3567 -218.4
269.39 -218.4
269.421 -218.4
269.4533 -218.4
269.4832 -218.4
269.5154 -218.4
269.5487 -218.4
269.5784 -218.4
269.6092 -218.4
269.6379 -218.4
269.6666 -218.4
269.6999 -218.4
269.7309 -218.4
269.7611 -218.4
269.7893 -218.2
269.8191 -218.2
269.8524 -218.2
269.8845 -218
269.9135 -216.9
269.9429 -216.9
269.9762 -215.8
270.0095 -213.4
270.0402 -213.4
270.0735 -210.1
270.1019 -205.95
270.1319 -205.95
270.1653 -201.15
270.1958 -197
270.2244 -197
270.2545 -190.7
270.2878 -185.45
270.3211 -185.45
270.3497 -179.1
270.383 -174.5
270.4142 -174.5
270.4467 -168.85
270.48 -166
270.5096 -166
270.5429 -163.15
270.5736 -163.15
270.6023 -160.75
270.6357 -158.8
270.669 -156.6
270.7012 -156.6
270.7309 -154.65
270.7642 -154.65
270.7975 -151.6
270.8289 -148.95
270.8568 -148.95
270.8859 -145
270.9192 -142.2
270.9525 -142.2
270.9821 -140.45
271.0115 -138.45
271.0447 -138.45
271.0767 -137.15
271.11 -136.3
271.1393 -136.3
271.1672 -135.2
271.1999 -134.3
271.2332 -134.3
271.2666 -133.45
271.295 -133.45
271.3261 -132.55
271.3581 -131.5
271.3914 -131.5
271.4247 -130.4
271.458 -129.1
271.4857 -128
271.519 -128
271.5523 -126.9
271.5857 -126.25
271.6169 -126.25
271.6467 -125.8
271.675 -125.8
271.7083 -125.8
271.7416 -125.8
271.7736 -125.8
271.8016 -125.8
271.8349 -125.8
271.863 -125.8
271.8964 -125.8
271.9252 -125.8
271.9546 -125.8
271.9879 -125.8
272.0213 -125.8
272.0546 -125.8
272.0856 -125.8
272.1152 -125.8
272.146 -125.8
272.1773 -125.8
272.2107 -125.8
272.2415 -125.8
272.2708 -125.8
272.3042 -125.8
272.3341 -125.8
272.3674 -125.8
272.3972 -125.8
272.428 -125.8
272.4584 -125.8
272.4886 -125.8
272.5219 -125.8
272.5529 -125.8
272.5862 -125.8
272.6157 -125.8
272.6491 -125.8
272.6824 -125.8
272.7157 -125.8
272.7441 -125.8
272.776 -125.8
272.8051 -125.8
272.8384 -125.8
272.8696 -125.8
272.9019 -125.8
272.9305 -125.6
272.9631 -125.6
272.9964 -125.35
273.0257 -125.35
273.059 -125.35
273.0905 -125.35
273.1198 -125.35
273.1531 -125.35
273.186 -125.35
273.2166 -125.35
273.247 -125.35
273.2779 -125.35
273.3112 -125.35
273.3405 -125.35
273.3738 -125.35
273.4045 -125.35
273.4325 -125.35
273.4659 -125.35
273.4958 -125.35
273.5286 -125.35
273.559 -125.35
273.591 -125.35
273.6244 -125.35
273.6577 -125.35
273.6866 -125.35
273.718 -125.35
273.7474 -125.35
273.7808 -125.35
273.8141 -125.35
273.8435 -125.35
273.8744 -125.35
273.9077 -125.35
273.9411 -125.35
273.9723 -125.35
274.0029 -125.35
274.0342 -125.35
274.063 -125.35
274.0964 -125.35
274.1267 -125.35
274.16 -125.35
274.1896 -125.35
274.22 -125.35
274.2533 -125.35
274.2842 -125.35
274.3161 -125.35
274.3494 -125.35
274.3781 -125.35
274.4114 -125.35
274.4391 -125.35
274.4725 -125.35
274.5023 -125.35
274.5353 -125.35
274.5686 -125.35
274.5994 -125.35
274.6319 -125.35
274.6621 -125.35
274.6901 -125.35
274.7234 -125.35
274.7567 -125.35
274.7861 -125.35
274.8143 -124.95
274.8441 -124.95
274.8774 -124.95
274.9091 -124.7
274.9372 -124.7
274.966 -124.7
274.9977 -124.7
275.031 -124.7
275.0598 -124.7
275.0897 -124.7
275.123 -124.7
275.1563 -124.7
275.1897 -124.7
275.2199 -124.7
275.2489 -124.7
275.2787 -124.7
275.3062 -124.7
275.3395 -124.7
275.3678 -124.7
275.3965 -124.7
275.4256 -124.7
275.4589 -124.7
275.4922 -124.7
275.5212 -124.7
275.5511 -124.7
275.5823 -124.7
275.6109 -124.7
275.6442 -124.7
275.6762 -124.7
275.7078 -124.7
275.7381 -124.7
275.7704 -124.7
275.8037 -124.7
275.8329 -124.7
275.8614 -124.7
275.8947 -124.7
275.9238 -124.7
275.9572 -124.7
275.989 -124.7
276.0179 -124.7
276.0485 -124.7
276.0818 -124.7
276.1151 -124.7
276.1485 -124.7
276.1818 -124.5
276.2126 -124.05
276.2459 -124.05
276.2793 -123.2
276.3104 -122.1
276.3401 -122.1
276.3735 -120.55
276.4068 -118.15
276.4401 -118.15
276.4735 -116.85
276.5018 -115.55
276.5328 -115.55
276.5647 -115.1
276.5981 -115.1
276.6288 -115.1
276.6621 -115.1
276.6905 -115.1
276.7238 -115.1
276.7572 -115.1
276.7878 -115.1
276.8211 -115.3
276.8511 -115.3
276.8813 -115.55
276.9147 -115.55
276.943 -115.95
276.9731 -116.65
277.0015 -116.65
277.0344 -117.05
277.0677 -117.5
277.1011 -117.5
277.1298 -117.95
277.1631 -118.15
277.1949 -118.15
277.2282 -118.35
277.2567 -118.35
277.2901 -118.35
277.3234 -118.35
277.3568 -118.35
277.3901 -118.35
277.42 -118.35
277.4483 -118.35
277.4788 -118.35
277.5083 -118.35
277.5416 -118.35
277.5695 -118.35
277.6011 -118.35
277.6313 -118.35
277.6647 -118.35
277.698 -118.35
277.7285 -118.35
277.7582 -118.35
277.7915 -118.35
277.8248 -118.35
277.8581 -118.35
277.8863 -118.35
277.9154 -118.35
277.9464 -118.35
277.976 -118.15
278.0094 -118.15
278.0423 -118.15
278.0708 -118.15
278.1013 -118.15
278.1347 -117.95
278.168 -117.95
278.1975 -117.95
278.2309 -117.95
278.261 -117.95
278.2932 -117.95
278.3266 -117.95
278.3567 -117.95
278.3878 -117.95
278.4211 -117.95
278.4507 -117.95
278.484 -117.95
278.515 -117.95
278.5472 -117.95
278.5764 -117.95
278.6084 -117.95
278.6417 -117.95
278.675 -117.95
278.7079 -117.95
278.7387 -117.95
278.7679 -117.95
278.8013 -117.95
278.8346 -117.95
278.8657 -117.95
278.8953 -117.95
278.9258 -117.95
278.9591 -117.95
278.9885 -117.95
279.0165 -117.95
279.0464 -117.95
279.0788 -117.95
279.1121 -117.95
279.1437 -117.95
279.1737 -117.95
279.2071 -117.95
279.2404 -117.95
279.2737 -117.95
279.3055 -117.95
279.334 -117.95
279.364 -117.95
279.3923 -117.95
279.4257 -117.95
279.4551 -117.95
279.4846 -117.95
279.5126 -117.95
279.5431 -117.95
279.5764 -117.95
279.6061 -117.95
279.6351 -117.95
279.6644 -117.3
279.6949 -117.3
279.7283 -115.95
279.7605 -114
279.7925 -114
279.8246 -110.05
279.8553 -110.05
279.8886 -105.05
279.9192 -100.45
279.9511 -95.45
279.9845 -95.45
280.0178 -91.95
280.0511 -87.8
280.0789 -87.8
280.1103 -86.05
280.1417 -84.75
280.1714 -84.75
280.2047 -83.85
280.2354 -83.4
280.2632 -83.4
280.2954 -83.2
280.3236 -83.2
280.3569 -83.2
280.3867 -83.2
280.42 -83.2
280.4506 -83.2
280.4815 -83
280.5148 -83
280.5468 -81.9
280.5751 -80.8
280.6041 -80.8
280.6325 -77.3
280.6659 -77.3
280.6992 -71.65
280.7284 -64
280.7564 -64
280.7867 -56.75
280.82 -47.6
280.8503 -47.6
280.8784 -41.5
280.9073 -41.5
280.9373 -35.8
280.9707 -33.85
281.0011 -33.85
281.0339 -32.95
281.0672 -32.95
281.1005 -32.75
281.1339 -32.75
281.1659 -31.2
281.1992 -27.3
281.2308 -27.3
281.2611 -24.45
281.2944 -19.85
281.3257 -19.85
281.359 -17
281.3878 -15.9
281.4189 -15.9
281.4522 -15.9
281.4836 -15.7
281.5132 -15.7
281.5435 -13.3
281.5717 -13.3
281.605 -10.9
281.6377 -8.3
281.6663 -8.3
281.6982 -6.75
281.7291 -5.65
281.7624 -5.65
281.7929 -5.2
281.8206 -5.2
281.8501 -5
281.8835 -4.8
281.9168 -4.8
281.9456 -4.55
281.9756 -4.55
282.0074 -4.55
282.0377 -4.55
282.071 -4.55
282.1042 -4.55
282.1329 -4.55
282.1652 -4.55
282.1967 -4.55
282.2301 -4.55
282.2634 -4.55
282.2918 -4.55
282.3233 -4.55
282.353 -4.55
282.3864 -4.55
282.4162 -4.55
282.4453 -4.55
282.4744 -4.55
282.503 -4.55
282.5363 -4.55
282.5649 -4.55
282.5972 -4.55
282.6252 -4.55
282.6552 -4.55
282.6885 -4.55
282.7179 -4.55
282.7464 -4.55
282.7759 -4.55
282.8039 -4.55
282.8372 -4.55
282.8685 -4.55
282.8997 -4.55
282.9318 -4.55
282.9648 -4.55
282.9981 -4.55
283.0304 -4.55
283.0595 -4.55
283.089 -4.55
283.1211 -4.55
283.1544 -4.55
283.1846 -4.55
283.2179 -4.55
283.2456 -4.55
283.2741 -4.55
283.3074 -4.55
283.3408 -4.55
283.3686 -4.55
283.3996 -4.55
283.4296 -4.55
283.4629 -4.55
283.4909 -4.55
283.5211 -4.55
283.5536 -4.55
283.5847 -4.55
283.618 -4.55
283.6505 -4.55
283.6797 -4.55
283.7131 -4.55
283.7464 -4.55
283.7798 -4.55
283.8105 -4.55
283.8418 -4.55
283.8743 -4.55
283.9076 -4.55
283.9409 -4.55
283.9725 -4.55
284.004 -4.55
284.0367 -4.55
284.0653 -4.55
284.0987 -4.55
284.132 -4.55
284.1612 -4.55
284.194 -4.55
284.2235 -4.55
284.2568 -4.55
284.2901 -4.55
284.3218 -4.55
284.3551 -4.55
284.3876 -4.55
284.4209 -4.55
284.45 -4.55
284.4833 -4.55
284.511 -4.55
284.5403 -4.55
284.5736 -4.55
284.6033 -4.55
284.6366 -4.55
284.6661 -4.55
284.6978 -4.55
284.7311 -4.55
284.7612 -4.55
284.7939 -4.55
284.8225 -4.55
284.8531 -4.55
284.8865 -4.55
284.9198 -4.55
284.9507 -4.55
284.9799 -4.55
285.0132 -4.55
285.0466 -4.55
285.0799 -4.55
285.1107 -4.55
285.143 -4.55
285.1763 -4.55
285.2097 -4.55
285.2413 -4.55
285.2746 -4.55
285.3073 -4.55
285.3373 -4.55
285.3707 -4.55
285.4001 -4.55
285.4304 -4.55
285.4638 -4.55
285.4939 -4.55
285.5273 -4.55
285.5573 -4.55
285.5861 -4.55
285.6194 -4.55
285.6488 -4.55
285.6822 -4.55
285.7104 -4.55
285.7437 -4.55
285.7737 -4.55
285.8047 -4.55
285.838 -4.55
285.8713 -4.55
285.9008 -4.55
285.9332 -4.55
285.9637 -4.55
285.997 -4.55
286.0303 -4.55
286.0601 -4.55
286.0911 -4.55
286.1244 -4.55
286.1577 -4.55
286.1908 -4.55
286.2221 -4.55
286.2555 -4.55
286.2863 -4.55
286.3196 -4.55
286.3516 -4.55
286.3845 -4.55
286.4134 -4.55
286.4431 -4.55
286.4765 -4.55
286.5098 -4.55
286.5378 -4.55
286.571 -4.55
286.5997 -4.55
286.633 -4.55
286.6627 -4.55
286.6928 -4.55
286.7222 -4.55
286.7531 -4.55
286.7864 -4.55
286.8197 -4.55
286.8514 -4.55
286.8817 -4.55
286.9126 -4.55
286.9459 -4.55
286.9755 -4.55
287.0065 -4.55
287.0399 -4.55
287.0732 -4.55
287.1065 -4.55
287.1375 -4.55
287.1654 -4.55
287.1987 -4.55
287.2279 -4.55
287.2612 -4.55
287.2946 -4.55
287.3243 -4.55
287.3574 -4.55
287.387 -4.55
287.4203 -4.55
287.4518 -4.55
287.4809 -4.55
287.5099 -4.55
287.5389 -4.55
287.5722 -4.55
287.6003 -4.55
287.6336 -4.55
287.6665 -4.55
287.6999 -4.55
287.7332 -4.55
287.764 -4.55
287.7923 -4.55
287.8221 -4.55
287.8549 -4.55
287.8882 -4.55
287.9185 -4.55
287.9485 -4.55
287.9804 -4.55
288.0138 -4.55
288.0471 -4.55
288.0772 -4.55
288.1068 -4.55
288.136 -4.55
288.1648 -4.55
288.1982 -4.55
288.2315 -4.55
288.2642 -4.55
288.2945 -4.55
288.3273 -4.55
288.3607 -4.55
288.3921 -4.55
288.4245 -4.55
288.4535 -4.55
288.4828 -4.55
288.5161 -4.55
288.5459 -4.55
288.5793 -4.55
288.6126 -4.55
288.6428 -4.55
288.6761 -4.55
288.7061 -4.55
288.7368 -4.55
288.7685 -4.55
288.8019 -4.55
288.8352 -4.55
288.8656 -4.55
288.8952 -4.55
288.9286 -4.55
288.9613 -4.55
288.9947 -4.55
289.0249 -4.55
289.0559 -4.55
289.0893 -4.55
289.1189 -4.55
289.1522 -4.55
289.1855 -4.55
289.2154 -4.55
289.2438 -4.55
289.2737 -4.55
289.307 -4.55
289.3366 -4.55
289.3652 -4.55
289.3985 -4.55
289.4281 -4.55
289.4615 -4.55
289.4891 -4.55
289.5182 -4.55
289.5516 -4.55
289.5849 -4.55
289.6182 -4.55
289.6486 -4.55
289.6765 -4.55
289.707 -4.55
289.7389 -4.55
289.7722 -4.55
289.8019 -4.55
289.8337 -4.55
289.8663 -4.55
289.8965 -4.55
289.9298 -4.55
289.9601 -4.55
289.9891 -4.55
290.0209 -4.55
290.0539 -4.55
290.0872 -4.55
290.12 -4.55
290.1521 -4.55
290.1854 -4.55
290.2143 -4.55
290.2476 -4.55
290.2799 -4.55
290.3133 -4.55
290.3428 -4.55
290.3762 -4.55
290.4095 -4.55
290.4372 -4.55
290.4678 -4.55
290.4959 -4.55
290.5281 -4.55
290.5614 -4.55
290.5917 -4.55
290.6249 -4.55
290.6535 -4.55
290.6857 -4.55
290.7191 -4.55
290.7493 -4.55
290.7827 -4.55
290.8114 -4.55
290.8411 -4.55
290.8744 -4.55
290.9035 -4.55
290.9328 -4.55
290.9661 -4.55
290.994 -4.55
291.0274 -4.55
291.0577 -4.55
291.088 -4.55
291.1213 -4.55
291.1514 -4.55
291.1848 -4.55
291.2174 -4.55
291.2477 -4.55
291.2803 -4.55
291.3123 -4.55
291.3456 -4.55
291.3737 -4.55
291.4027 -4.55
291.4319 -4.55
291.4607 -4.55
291.4926 -4.55
291.5259 -4.55
291.5539 -4.55
291.586 -4.55
291.614 -4.55
291.6473 -4.55
291.6807 -4.55
291.714 -4.55
291.7461 -4.55
291.7769 -4.55
291.8076 -4.55
291.8409 -4.55
291.8699 -4.55
291.8998 -4.55
291.9297 -4.55
291.9619 -4.55
291.9952 -4.55
292.0265 -4.55
292.0575 -4.55
292.0886 -4.55
292.1187 -4.55
292.152 -4.55
292.1813 -4.55
292.2119 -4.55
292.2413 -4.55
292.2736 -4.55
292.3069 -4.55
292.3401 -4.55
292.3713 -4.55
292.4037 -4.55
292.4328 -4.55
292.4661 -4.55
292.497 -4.55
292.5258 -4.55
292.5547 -4.55
292.588 -4.55
292.6213 -4.55
292.6511 -4.55
292.6844 -4.55
292.7141 -4.55
292.7421 -4.55
292.7755 -4.55
292.8049 -4.55
292.8346 -4.55
292.8672 -4.55
292.8977 -4.55
292.931 -4.55
292.9614 -4.55
292.9894 -4.55
293.0187 -4.55
293.0479 -4.55
293.0813 -4.55
293.111 -4.55
293.1411 -4.55
293.1689 -4.55
293.1984 -4.55
293.2317 -4.55
293.265 -4.55
293.2984 -4.55
293.3317 -4.55
293.3618 -4.55
293.3952 -4.55
293.4243 -4.55
293.4553 -4.55
293.4853 -4.55
293.5186 -4.55
293.552 -4.55
293.5838 -4.55
293.6151 -4.55
293.648 -4.55
293.68 -4.55
293.7133 -4.55
293.7451 -4.55
293.7754 -4.55
293.8036 -4.55
293.8369 -4.55
293.8702 -4.55
293.9036 -4.55
293.9326 -4.55
293.9633 -4.55
293.9937 -4.55
294.027 -4.55
294.0603 -4.55
294.093 -4.55
294.1223 -4.55
294.1556 -4.55
294.189 -4.55
294.2223 -4.55
294.2556 -4.55
294.2854 -4.55
294.3187 -4.55
294.3521 -4.55
294.3801 -4.55
294.41 -4.55
294.441 -4.55
294.4716 -4.55
294.5049 -4.55
294.537 -4.55
294.5689 -4.55
294.598 -4.55
294.6274 -4.55
294.6607 -4.55
294.6899 -4.55
294.7196 -4.55
294.7488 -4.55
294.7787 -4.55
294.812 -4.55
294.8454 -4.55
294.8784 -4.55
294.9095 -4.55
294.9386 -4.55
294.9719 -4.55
295.0023 -4.55
295.0334 -4.55
295.0634 -4.55
295.0927 -4.55
295.126 -4.55
295.1548 -4.55
295.1828 -4.55
295.2142 -4.55
295.2454 -4.55
295.2787 -4.55
295.3121 -4.55
295.3452 -4.55
295.3731 -4.55
295.4022 -4.55
295.4355 -4.55
295.4688 -4.55
295.4985 -4.55
295.5272 -4.55
295.5605 -4.55
295.5938 -4.55
295.6272 -4.55
295.6589 -4.55
295.6918 -4.55
295.7234 -4.55
295.7568 -4.55
295.7859 -4.55
295.8193 -4.55
295.8526 -4.55
295.8835 -4.55
295.9168 -4.55
295.9447 -4.55
295.9728 -4.55
296.0004 -4.55
296.0337 -4.55
296.067 -4.55
296.1004 -4.55
296.1295 -4.55
296.1581 -4.55
296.1872 -4.55
296.2205 -4.55
296.252 -4.55
296.2841 -4.55
296.3146 -4.55
296.3447 -4.55
296.378 -4.55
296.4064 -4.55
296.4348 -4.55
296.4636 -4.55
296.4919 -4.55
296.5252 -4.55
296.5541 -4.55
296.5833 -4.55
296.6127 -4.55
296.646 -4.55
296.6794 -4.55
296.7083 -4.55
296.736 -4.55
296.7693 -4.55
296.8002 -4.55
296.8336 -4.55
296.8644 -4.55
296.8977 -4.55
296.9258 -4.55
296.9591 -4.55
296.9925 -4.55
297.0213 -4.55
297.0489 -4.55
297.0782 -4.55
297.1071 -4.55
297.1404 -4.55
297.1713 -4.55
297.2033 -4.55
297.2332 -4.55
297.2627 -4.55
297.2961 -4.55
297.3292 -4.55
297.3589 -4.55
297.3912 -4.55
297.4205 -4.55
297.4539 -4.55
297.483 -4.55
297.5117 -4.55
297.5421 -4.55
297.5739 -4.55
297.6072 -4.55
297.6371 -4.55
297.6668 -4.55
297.7001 -4.55
297.7335 -4.55
297.7668 -4.55
297.7992 -4.55
297.8325 -4.55
297.8658 -4.55
297.895 -4.55
297.9283 -4.55
297.9576 -4.55
297.9892 -4.55
298.0187 -4.55
298.048 -4.55
298.0813 -4.55
298.1107 -4.55
298.1439 -4.55
298.1739 -4.55
298.2072 -4.55
298.2405 -4.55
298.2709 -4.55
298.299 -4.55
298.3323 -4.55
298.362 -4.55
298.3953 -4.55
298.4261 -4.55
298.4559 -4.55
298.4892 -4.55
298.5189 -4.55
298.5522 -4.55
298.5818 -4.55
298.6098 -4.55
298.6411 -4.55
298.6693 -4.55
298.7026 -4.55
298.7315 -4.55
298.7647 -4.55
298.7957 -4.55
298.8291 -4.55
298.8624 -4.55
298.8932 -4.55
298.9218 -4.55
298.9541 -4.55
298.9851 -4.55
299.0184 -4.55
299.0463 -4.55
299.0761 -4.55
299.1042 -4.55
299.134 -4.55
299.1673 -4.55
299.2006 -4.55
299.2305 -4.55
299.2606 -4.55
299.2912 -4.55
299.3246 -4.55
299.3579 -4.55
299.3886 -4.55
299.4199 -4.55
299.4532 -4.55
299.4866 -4.55
299.5154 -4.55
299.5439 -4.55
299.5772 -4.55
299.6076 -4.55
299.6409 -4.55
299.6689 -4.55
299.7 -4.55
299.7333 -4.55
299.766 -4.55
299.7993 -4.55
299.8305 -4.55
299.8598 -4.55
299.8922 -4.55
299.9256 -4.55
299.9589 -4.55
299.9907 -4.55
300.0213 -4.55
300.0546 -4.55
300.0853 -4.55
300.1186 -4.55
300.1485 -4.55
300.1802 -4.55
300.2123 -4.55
300.2425 -4.55
300.2758 -4.55
300.3071 -4.55
300.339 -4.55
300.3686 -4.55
300.4019 -4.55
300.4353 -4.55
300.4649 -4.55
300.4925 -4.55
300.524 -4.55
300.5517 -4.55
300.5851 -4.55
300.6135 -4.55
300.6424 -4.55
300.6739 -4.55
300.7061 -4.55
300.7394 -4.55
300.7682 -4.55
300.7979 -4.55
300.8282 -4.55
300.8574 -4.55
300.8907 -4.55
300.9214 -4.55
300.9548 -4.55
300.9862 -4.55
301.0181 -4.55
301.0514 -4.55
301.0802 -4.55
301.1083 -4.55
301.1416 -4.55
301.1699 -4.55
301.2032 -4.55
301.2333 -4.55
301.2642 -4.55
301.2921 -4.55
301.3237 -4.55
301.357 -4.55
301.3864 -4.55
301.4182 -4.55
301.4476 -4.55
301.481 -4.55
301.5143 -4.55
301.5435 -4.55
301.5732 -4.55
301.6065 -4.55
301.6398 -4.55
301.6731 -4.55
301.7065 -4.55
301.7345 -4.55
301.7672 -4.55
301.8001 -4.55
301.8335 -4.55
301.8644 -4.55
301.8931 -4.55
301.9227 -4.55
301.952 -4.55
301.9853 -4.55
302.0154 -4.55
302.0463 -4.55
302.0765 -4.55
302.1049 -4.55
302.1383 -4.55
302.1677 -4.55
302.201 -4.55
302.2318 -4.55
302.2625 -4.55
302.2959 -4.55
302.3281 -4.55
302.3572 -4.55
302.3867 -4.55
302.4156 -4.55
302.449 -4.55
302.4772 -4.55
302.5079 -4.55
302.541 -4.55
302.5743 -4.55
302.6075 -4.55
302.6408 -4.55
302.6702 -4.55
302.6994 -4.55
302.7279 -4.55
302.7612 -4.55
302.7898 -4.55
302.8232 -4.55
302.8531 -4.55
302.8832 -4.55
302.9165 -4.55
302.9456 -4.55
302.975 -4.55
303.0036 -4.55
303.0321 -4.55
303.0655 -4.55
303.0965 -4.55
303.1288 -4.55
303.1558 -4.55
303.1889 -4.55
303.2223 -4.55
303.2524 -4.55
303.2835 -4.55
303.3119 -4.55
303.3396 -4.55
303.373 -4.55
303.4012 -4.55
303.4345 -4.55
303.4678 -4.55
303.4982 -4.55
303.5315 -4.55
303.5609 -4.55
303.5929 -5
303.6259 -5
303.6559 -5
303.6893 -5
303.7168 -5
303.75 -5
303.7806 -5
303.8094 -5
303.8427 -5
303.8722 -5
303.9001 -5
303.9334 -5
303.9616 -5
303.9949 -5
304.0237 -5
304.0568 -5
304.0848 -5
304.1166 -5
304.1497 -5
304.1785 -5
304.2072 -5
304.2373 -5
304.2698 -5
304.3032 -5
304.3306 -5
304.36 -5
304.3916 -5
304.4248 -5
304.4581 -5
304.4909 -5
304.5203 -5
304.5536 -5
304.5869 -5
304.6203 -5
304.6488 -5
304.6822 -5
304.7101 -5
304.7412 -5
304.7745 -5
304.803 -5
304.8345 -5
304.8636 -5
304.8917 -5
304.925 -5
304.9528 -5
304.9816 -5
305.0093 -5
305.0388 -5
305.0721 -5
305.1039 -5
305.1333 -5
305.1619 -5
305.1901 -5
305.2235 -5
305.2534 -5
305.2828 -5
305.3151 -5
305.3439 -5
305.3772 -5
305.406 -5
305.4367 -5
305.4652 -5
305.4923 -5
305.5257 -5
305.559 -5
305.5923 -5
305.6212 -5
305.6536 -5
305.6846 -5
305.718 -5
305.7462 -5
305.7785 -5
305.8083 -5
305.8388 -5
305.8721 -5
305.9031 -5
305.9321 -5
305.9624 -5
305.9926 -5
306.0259 -5
306.059 -5
306.0921 -5
306.1195 -5
306.1501 -5
306.1828 -5
306.2118 -5
306.2393 -5
306.268 -5
306.2951 -5
306.3279 -5
306.3612 -5
306.3931 -5
306.4243 -5
306.454 -5
306.4839 -5
306.5172 -5
306.5456 -5
306.5754 -5
306.6048 -5
306.6346 -5
306.6679 -5
306.6995 -5
306.7328 -5
306.762 -5
306.7896 -5
306.8229 -5
306.851 -5
306.8804 -5
306.9083 -5
306.938 -5
306.9714 -5
307.0031 -5
307.032 -5
307.0613 -5
307.0946 -5
307.128 -5
307.1563 -5
307.1863 -5
307.2159 -5
307.2458 -5
307.2786 -5
307.3088 -5
307.3385 -5
307.3677 -5
307.3994 -5
307.4327 -5
307.466 -5
307.4955 -5
307.5289 -5
307.5622 -5
307.5956 -5
307.6281 -5
307.6571 -5
307.688 -5
307.7173 -5
307.7507 -5
307.7782 -5
307.8115 -5
307.8395 -5
307.8688 -5
307.9021 -5
307.9355 -5
307.9688 -5
307.9971 -5
308.025 -5
308.0583 -5
308.0881 -5
308.1174 -5
308.1477 -5
308.1811 -5
308.2144 -5
308.246 -5
308.2752 -5
308.3069 -5
308.3353 -5
308.3686 -5
308.4019 -5
308.4331 -5
308.4614 -5
308.4907 -5
308.524 -5
308.554 -5
308.5874 -5
308.6162 -5
308.6495 -5
308.6829 -5
308.7112 -5
308.7444 -5
308.7739 -5
308.8049 -5
308.8382 -5
308.8682 -5
308.898 -5
308.9312 -5
308.9603 -5
308.9936 -5
309.0213 -5
309.0517 -5
309.0796 -5
309.1099 -5
309.1432 -5
309.1728 -5
309.2015 -5
309.2322 -5
309.2655 -5
309.2989 -5
309.3282 -5
309.3615 -5
309.3911 -5
309.4243 -5
309.4577 -5
309.489 -5
309.5201 -5
309.5526 -5
309.586 -5
309.6193 -5
309.6469 -5
309.6777 -5
309.7111 -5
309.7426 -5
309.7759 -5
309.8093 -5
309.8402 -5
309.869 -5
309.9014 -5
309.9347 -5
309.9671 -5
309.9994 -5
310.027 -5
310.0585 -5
310.0918 -5
310.1211 -5
310.1544 -5
310.1835 -5
310.2132 -5
310.2465 -5
310.2759 -5
310.3084 -5
310.3385 -5
310.3719 -5
310.4052 -5
310.4349 -5
310.4654 -5
310.4941 -5
310.5218 -5
310.5552 -5
310.5827 -5
310.6152 -5
310.6435 -5
310.674 -5
310.7073 -5
310.7377 -5
310.7665 -5
310.7972 -5
310.8306 -5
310.8639 -5
310.8936 -5
310.9227 -5
310.9504 -5
310.9797 -5
311.0131 -5
311.0429 -5
311.0702 -5
311.1023 -5
311.1337 -5
311.167 -5
311.1978 -5
311.2298 -5
311.2626 -5
311.296 -5
311.3293 -5
311.3606 -5
311.3897 -5
311.4183 -5
311.4472 -5
311.4805 -5
311.5086 -5
311.5419 -5
311.57 -5
311.6012 -5
311.6346 -5
311.6647 -5
311.6956 -5
311.7289 -5
311.7556 -5
311.7889 -5
311.8222 -5
311.8551 -5
311.8846 -5
311.9164 -5
311.9498 -5
311.9831 -5
312.0164 -5
312.0463 -5
312.0768 -5
312.1101 -5
312.1435 -5
312.1768 -5
312.2047 -5
312.238 -5
312.2714 -5
312.3026 -5
312.3324 -5
312.3631 -5
312.3914 -5
312.4247 -5
312.4547 -5
312.4866 -5
312.5143 -5
312.5454 -5
312.5787 -5
312.6088 -5
312.6379 -5
312.6679 -5
312.6963 -5
312.7296 -5
312.7587 -5
312.7921 -5
312.8194 -5
312.8497 -5
312.883 -5
312.9128 -5
312.9439 -5
312.9736 -5
313.0027 -5
313.036 -5
313.0634 -5
313.0933 -5
313.1235 -5
313.1536 -5
313.187 -5
313.2195 -5
313.2498 -5
313.2787 -5
313.3077 -5
313.341 -5
313.371 -5
313.4024 -5
313.4319 -5
313.4609 -5
313.4943 -5
313.5272 -5
313.5597 -5
313.588 -5
313.616 -5
313.6494 -5
313.6774 -5
313.7069 -5
313.7363 -5
313.7668 -5
313.8001 -5
313.8335 -5
313.8637 -5
313.8951 -5
313.9262 -5
313.9595 -5
313.9879 -5
314.019 -5
314.0499 -5
314.0798 -5
314.1131 -5
314.1431 -5
314.1711 -5
314.2023 -5
314.2321 -5
314.2654 -5
314.2936 -5
314.3267 -5
314.3585 -5
314.3897 -5
314.423 -5
314.4536 -5
314.4846 -5.85
314.5163 -5.85
314.5467 -8.5
314.58 -11.1
314.6105 -11.1
314.6435 -12.45
314.6732 -12.85
314.7048 -12.85
314.7381 -12.85
314.7677 -12.85
314.7962 -12.85
314.8276 -12.85
314.861 -12.85
314.8943 -12.85
314.9256 -12.45
314.9578 -11.75
314.9878 -11.75
315.0182 -11.1
315.0515 -11.1
315.0815 -11.1
315.1106 -11.1
315.1402 -11.1
315.1694 -11.1
315.2027 -11.1
315.2312 -11.1
315.262 -11.1
315.2913 -10
315.3233 -10
315.3566 -8.3
315.3863 -8.3
315.4162 -6.95
315.4492 -6.3
315.4817 -6.3
315.515 -6.3
315.5433 -6.3
315.5766 -6.3
315.6062 -6.3
315.6367 -6.3
315.6701 -6.3
315.7012 -5.85
315.7298 -5.85
315.7592 -5.45
315.7903 -5
315.8236 -5
315.8561 -5
315.888 -5
315.9179 -5
315.9496 -5
315.9829 -5
316.0157 -5
316.0472 -5
316.0797 -5
316.1083 -5
316.1416 -5
316.1749 -5
316.2047 -5
316.2338 -5
316.2645 -5
316.2979 -5
316.3312 -5
316.3617 -5
316.3936 -5
316.4224 -5
316.4557 -5
316.4839 -5
316.5132 -5
316.5409 -5
316.5742 -5
316.6075 -5
316.6388 -5
316.6695 -5
316.7022 -5
316.7356 -5
316.7689 -5
316.7984 -5
316.831 -5
316.8633 -5
316.8949 -5
316.9282 -5
316.9574 -5
316.9877 -5
317.021 -5
317.0522 -5
317.0855 -5
317.1154 -5
317.1447 -5
317.175 -5
317.206 -5
317.2393 -5
317.2726 -4.8
317.3016 -4.8
317.331 -4.8
317.3643 -4.8
317.3977 -4.8
317.4257 -4.8
317.4575 -4.8
317.4869 -4.8
317.5171 -4.55
317.5504 -4.55
317.5838 -4.55
317.6171 -4.55
317.6479 -4.55
317.6771 -4.55
317.7104 -4.55
317.7416 -4.55
317.7712 -4.55
317.8028 -4.55
317.8362 -4.55
317.8695 -4.55
317.9006 -4.55
317.9294 -4.55
317.9601 -4.35
317.9889 -4.35
318.0222 -4.35
318.0511 -4.35
318.0835 -4.35
318.1141 -4.35
318.1449 -4.35
318.1783 -4.35
318.2089 -4.35
318.238 -4.35
318.2682 -4.35
318.2968 -4.35
318.3302 -4.35
318.3635 -4.35
318.3943 -4.35
318.4276 -4.35
318.457 -4.35
318.4904 -4.35
318.5208 -4.35
318.551 -4.35
318.5823 -4.35
318.613 -4.35
318.6464 -4.35
318.6757 -4.35
318.7061 -4.35
318.7347 -4.35
318.7651 -4.35
318.7984 -4.35
318.8304 -4.35
318.8599 -4.35
318.8891 -4.35
318.9181 -4.35
318.9514 -4.35
318.9806 -4.35
319.0112 -4.35
319.0413 -4.35
319.0716 -4.35
319.1049 -4.35
319.1378 -4.35
319.1698 -4.35
319.2019 -4.35
319.2306 -4.35
319.2639 -4.35
319.2952 -4.35
319.3242 -4.35
319.3523 -4.35
319.3831 -4.35
319.4164 -4.35
319.4461 -4.35
319.4769 -4.35
319.5057 -4.35
319.5334 -4.35
319.5667 -4.35
319.6 -4.35
319.6291 -4.35
319.6582 -4.35
319.6915 -4.35
319.7249 -4.35
319.7582 -4.35
319.7892 -4.35
319.8225 -4.35
319.8508 -4.35
319.8842 -4.35
319.9125 -4.35
319.9417 -4.35
319.975 -4.35
320.0064 -4.55
320.0397 -4.55
320.0695 -4.55
320.0983 -4.55
320.129 -4.55
320.1624 -4.55
320.1957 -4.55
320.2288 -4.8
320.2589 -4.8
320.2906 -5.2
320.32 -5.2
320.3534 -6.1
320.3823 -6.75
320.4114 -6.75
320.4411 -6.75
320.4701 -6.75
320.5034 -6.75
320.5334 -6.75
320.565 -6.75
320.5979 -6.75
320.6313 -6.75
320.6636 -6.75
320.6969 -6.75
320.726 -6.75
320.7589 -6.75
320.788 -6.75
320.8213 -6.75
320.8528 -6.75
320.886 -6.75
320.9168 -6.75
320.9485 -6.75
320.9818 -6.75
321.0152 -6.75
321.0475 -6.75
321.0767 -6.75
321.1097 -6.75
321.1431 -6.75
321.1722 -6.75
321.2017 -6.75
321.2328 -6.75
321.2658 -6.75
321.2991 -6.75
321.3325 -6.75
321.3618 -6.75
321.3951 -6.75
321.4263 -6.75
321.4597 -6.75
321.4876 -6.75
321.5174 -6.75
321.5508 -6.75
321.5822 -6.75
321.6155 -6.75
321.6485 -6.75
321.6795 -6.75
321.7118 -6.75
321.7407 -6.75
321.774 -6.75
321.8053 -6.75
321.8386 -6.75
321.8683 -6.75
321.9017 -6.75
321.935 -6.75
321.9684 -6.75
321.9971 -6.75
322.0282 -6.75
322.0565 -6.75
322.0898 -6.75
322.1215 -6.75
322.1507 -6.75
322.179 -6.75
322.2086 -6.75
322.242 -6.75
322.2753 -6.75
322.3075 -6.75
322.3408 -6.75
322.3703 -6.75
322.4036 -6.75
322.4321 -6.75
322.4654 -6.75
322.4933 -6.75
322.5238 -6.75
322.5572 -6.75
322.5905 -6.75
322.6196 -6.75
322.6529 -6.75
322.6828 -6.75
322.7161 -6.75
322.7448 -6.75
322.7757 -6.75
322.8046 -6.75
322.834 -6.75
322.8674 -6.75
322.8997 -6.75
322.9329 -6.75
322.9635 -6.75
322.9922 -6.75
323.0256 -6.75
323.056 -6.75
323.0862 -6.75
323.1148 -6.75
323.1447 -6.75
323.1781 -6.75
323.2101 -6.75
323.2383 -6.75
323.2716 -6.75
323.3021 -6.75
323.3354 -6.75
323.3638 -6.75
323.3932 -6.75
323.4218 -6.75
323.4508 -6.75
323.4842 -6.75
323.5175 -6.75
323.5455 -6.75
323.5753 -6.75
323.6056 -6.75
323.6389 -6.75
323.6682 -6.75
323.6977 -6.75
323.7271 -6.75
323.7567 -6.75
323.79 -6.75
323.8233 -6.75
323.8517 -6.75
323.885 -6.75
323.9144 -6.75
323.9477 -6.75
323.9808 -6.75
324.0142 -6.75
324.0453 -6.75
324.0787 -6.75
324.112 -6.75
324.1453 -6.75
324.1735 -6.75
324.2031 -6.75
324.2311 -6.75
324.2645 -6.75
324.2946 -6.75
324.328 -6.75
324.3586 -6.75
324.3919 -6.75
324.4252 -6.75
324.4561 -6.75
324.4875 -6.75
324.5171 -6.75
324.5455 -6.75
324.5789 -6.75
324.6112 -6.75
324.6421 -6.75
324.6714 -6.75
324.7022 -6.75
324.7356 -6.75
324.7647 -6.75
324.7935 -6.75
324.8268 -6.75
324.8589 -6.75
324.8923 -6.75
324.9256 -6.75
324.9547 -6.75
324.9831 -6.75
325.0164 -6.75
325.0497 -6.75
325.0803 -6.75
325.1136 -6.75
325.1434 -6.75
325.1716 -6.75
325.2049 -6.75
325.2328 -6.75
325.2627 -6.75
325.2914 -6.75
325.3204 -6.75
325.3538 -6.75
325.3847 -6.75
325.4151 -6.75
325.4458 -6.75
325.476 -6.75
325.5093 -6.75
325.5381 -6.75
325.567 -6.75
325.5948 -6.75
325.6239 -6.75
325.6572 -6.75
325.6876 -6.75
325.7175 -6.75
325.7466 -6.75
325.7751 -6.75
325.8085 -6.75
325.8365 -6.75
325.8661 -6.75
325.8968 -6.75
325.9266 -6.75
325.96 -6.75
325.9933 -6.75
326.0255 -6.75
326.0555 -6.75
326.0842 -6.75
326.1176 -6.75
326.1456 -6.75
326.177 -6.75
326.2069 -6.75
326.2384 -6.75
326.2717 -6.75
326.3041 -6.75
326.3355 -6.75
326.3688 -6.75
326.4022 -6.75
326.4355 -6.75
326.4676 -6.75
326.4988 -6.75
326.5306 -6.75
326.5607 -6.75
326.594 -6.75
326.6266 -6.75
326.6554 -6.75
326.6863 -6.75
326.7143 -6.75
326.7476 -6.75
326.7771 -6.55
326.8071 -6.55
326.837 -4.8
326.8703 -4.15
326.9036 -4.15
326.9352 -3.9
326.9641 -3.7
326.9975 -3.7
327.0266 -3.25
327.0599 -2.8
327.0923 -2.8
327.1256 -2.6
327.159 -2.6
327.1884 -2.6
327.2217 -2.6
327.2514 -2.6
327.2812 -2.6
327.3121 -2.6
327.3433 -2.6
327.3766 -2.6
327.4049 -2.6
327.437 -2.6
327.4688 -2.6
327.5021 -2.4
327.5354 -2.4
327.5687 -2.4
327.6018 -2.4
327.6318 -2.4
327.6604 -2.4
327.6938 -2.15
327.723 -2.15
327.7535 -2.15
327.7826 -1.95
327.813 -1.95
327.8463 -1.95
327.877 -1.7
327.9063 -1.7
327.9389 -1.5
327.9698 -1.5
328.0031 -1.3
328.0319 -1.3
328.0644 -1.3
328.0939 -1.3
328.1272 -1.3
328.1606 -1.3
328.1926 -1.3
328.2225 -1.3
328.2558 -1.3
328.2892 -1.3
328.3225 -1.3
328.353 -1.3
328.3821 -1.3
328.4114 -1.3
328.4424 -1.3
328.4757 -1.3
328.5077 -1.3
328.541 -1.3
328.5718 -1.3
328.6024 -1.3
328.6358 -1.3
328.6691 -1.3
328.7023 -1.3
328.7308 -1.3
328.7606 -1.3
328.7939 -1.3
328.823 -1.3
328.8509 -1.3
328.8821 -1.3
328.9139 -1.3
328.9472 -1.3
328.9806 -1.3
329.0117 -1.3
329.0451 -1.5
329.0758 -1.5
329.1091 -1.5
329.1395 -1.5
329.1721 -1.5
329.2027 -1.5
329.2329 -1.5
329.2663 -1.5
329.2954 -1.5
329.3272 -1.5
329.3605 -1.5
329.3896 -1.5
329.4227 -1.5
329.4534 -1.5
329.4837 -1.5
329.517 -1.5
329.5477 -1.5
329.581 -1.5
329.6101 -1.5
329.6415 -1.5
329.6708 -1.5
329.7042 -1.5
329.7375 -1.5
329.7708 -1.5
329.8002 -1.5
329.8326 -1.5
329.8611 -1.5
329.8944 -1.5
329.9231 -1.5
329.9536 -1.5
329.9825 -1.5
330.0128 -1.5
330.0461 -1.5
330.0751 -1.5
330.1039 -1.5
330.1365 -1.5
330.1692 -1.5
330.2025 -1.5
330.2311 -1.5
330.2604 -1.5
330.2928 -1.5
330.3223 -1.5
330.3556 -1.5
330.3889 -1.5
330.418 -1.5
330.448 -1.5
330.4776 -1.5
330.511 -1.5
330.5436 -1.5
330.577 -1.5
330.6088 -1.5
330.6386 -1.5
330.6719 -1.5
330.703 -1.5
330.7318 -1.5
330.7617 -1.5
330.7909 -1.5
330.8242 -1.5
330.8558 -1.5
330.8857 -1.5
330.9175 -1.5
330.9509 -1.5
330.9842 -1.5
331.0145 -1.5
331.0421 -1.5
331.0754 -1.5
331.1073 -1.5
331.1407 -1.5
331.1696 -1.5
331.2005 -1.5
331.23 -1.5
331.2634 -1.5
331.2967 -1.5
331.3291 -1.5
331.3576 -1.5
331.387 -1.5
331.4176 -1.5
331.4509 -1.5
331.4807 -1.5
331.514 -1.5
331.5446 -1.5
331.5743 -1.5
331.6076 -1.5
331.6382 -1.5
331.6669 -1.5
331.6987 -1.5
331.7291 -1.5
331.7625 -1.5
331.7936 -1.5
331.8227 -1.7
331.8519 -1.95
331.8851 -1.95
331.9184 -2.15
331.9518 -2.15
331.9805 -2.15
332.0106 -2.4
332.0396 -2.4
332.073 -2.4
332.1044 -2.4
332.1369 -2.4
332.17 -2.4
332.2001 -2.4
332.2334 -2.4
332.2644 -2.4
332.2928 -2.4
332.3261 -2.4
332.3558 -2.4
332.3891 -2.4
332.4218 -2.4
332.4525 -2.4
332.4814 -2.4
332.5108 -2.4
332.5441 -2.4
332.5751 -2.4
332.6084 -2.4
332.639 -2.4
332.6694 -2.4
332.7027 -2.4
332.732 -2.4
332.7626 -2.4
332.791 -2.4
332.8212 -2.4
332.8546 -2.4
332.885 -2.4
332.9135 -2.4
332.944 -2.4
332.9726 -2.4
333.006 -2.4
333.0337 -2.4
333.0645 -2.4
333.0943 -2.4
333.1253 -2.4
333.1586 -2.4
333.1874 -2.4
333.2189 -2.4
333.2522 -2.4
333.2856 -2.4
333.3189 -2.4
333.3494 -2.4
333.3799 -2.4
333.409 -2.4
333.4423 -2.4
333.4756 -2.4
333.509 -2.15
333.54 -2.15
333.5707 -2.15
333.6031 -1.95
333.6365 -1.7
333.6675 -1.7
333.6967 -1.7
333.7286 -1.7
333.7619 -1.7
333.7952 -1.7
333.8258 -1.7
333.8557 -1.7
333.8878 -1.7
333.916 -1.7
333.9494 -1.7
333.9772 -1.7
334.0065 -1.7
334.0346 -1.7
334.0653 -1.7
334.0986 -1.7
334.1319 -1.7
334.1606 -1.7
334.1902 -1.95
334.2223 -1.95
334.2556 -1.95
334.2868 -1.95
334.3194 -2.15
334.3517 -2.15
334.3812 -2.4
334.4145 -2.6
334.4439 -2.6
334.4734 -2.8
334.5067 -2.8
334.535 -2.8
334.5683 -2.8
334.5993 -2.8
334.6316 -2.8
334.6601 -2.8
334.6902 -2.8
334.7235 -2.8
334.7539 -2.8
334.7831 -2.8
334.8147 -2.8
334.848 -2.8
334.8813 -2.8
334.9147 -2.8
334.9451 -2.8
334.9736 -2.8
335.0041 -2.8
335.0374 -2.8
335.0687 -2.8
335.0969 -2.8
335.1301 -2.8
335.1635 -2.8
335.1968 -2.6
335.2301 -2.4
335.2619 -2.4
335.2952 -1.95
335.3276 -1.05
335.3609 -1.05
335.3906 -0.65
335.4235 -0.2
335.4568 -0.2
335.4856 -0.2
335.519 -0.2
335.5523 -0.2
335.5822 -0.2
335.6122 -0.2
335.645 -0.2
335.6783 -0.2
335.7075 -0.2
335.7364 -0.2
335.7683 -0.2
335.8004 -0.2
335.8338 -0.2
335.8624 -0.2
335.8957 -0.2
335.9261 -0.2
335.9555 -0.2
335.9888 -0.2
336.0222 -0.2
336.05 -0.2
336.0811 -0.2
336.1093 -0.2
336.1427 -0.2
336.1714 -0.2
336.2047 -0.2
336.233 0
336.2624 0
336.2957 0.4
336.3291 1.05
336.3567 1.05
336.3869 1.5
336.4184 1.5
336.4517 1.7
336.481 1.95
336.5143 1.95
336.5426 1.95
336.5759 1.95
336.6093 1.95
336.6397 1.95
336.6681 2.15
336.7009 2.15
336.7327 2.4
336.766 2.6
336.7993 2.6
336.8327 2.6
336.866 2.6
336.8964 2.6
336.9297 2.6
336.963 2.6
336.9931 2.6
337.0257 2.6
337.0578 2.6
337.0912 2.6
337.1197 2.6
337.149 2.6
337.1776 2.6
337.2079 2.6
337.2413 2.6
337.2705 2.15
337.2991 1.3
337.3324 1.3
337.3633 0.85
337.3967 0.65
337.43 0.65
337.4633 0.65
337.4947 0.65
337.5255 0.65
337.5589 0.65
337.5892 0.65
337.6168 0.65
337.646 0.65
337.6761 0.65
337.7094 0.65
337.7373 0.65
337.7707 0.65
337.804 0.65
337.833 0.65
337.8663 0.65
337.8977 0.65
337.9256 0.65
337.9584 0.65
337.9896 0.85
338.0229 0.85
338.0519 0.85
338.0827 1.05
338.1113 1.05
338.1409 1.05
338.1743 1.3
338.2076 1.3
338.2365 1.3
338.2678 1.3
338.2965 1.3
338.3298 1.3
338.3589 1.3
338.3904 1.3
338.42 1.3
338.4504 1.3
338.4838 1.3
338.5167 1.3
338.5476 1.3
338.5804 1.3
338.6123 1.3
338.6457 1.3
338.679 1.3
338.7085 1.3
338.7396 1.3
338.7693 1.3
338.8026 1.3
338.8359 1.3
338.8659 1.3
338.8983 1.3
338.9314 1.3
338.9647 1.3
338.998 1.3
339.0302 1.5
339.0635 1.5
339.0943 1.7
339.1276 2.15
339.1575 2.15
339.1864 2.4
339.2176 2.4
339.2472 2.6
339.2805 3.05
339.3097 3.05
339.3424 3.25
339.3722 3.9
339.4055 3.9
339.4389 4.55
339.4679 5.2
339.5012 5.2
339.5345 5.65
339.5657 6.1
339.5991 6.55
339.6277 6.55
339.6599 6.95
339.6919 6.95
339.7232 8.05
339.7564 8.7
339.7897 8.7
339.8176 9.8
339.851 10.45
339.8822 10.45
339.9156 10.9
339.947 11.75
339.9804 11.75
340.0107 12.85
340.0432 14.4
340.0765 14.4
340.1065 15.7
340.1351 15.7
340.1685 17.45
340.2 19
340.2333 19
340.2621 21.6
340.2923 24.45
340.3202 24.45
340.3516 27.95
340.3849 30.35
340.4148 30.35
340.443 33.85
340.4732 33.85
340.5043 35.15
340.5376 35.6
340.5673 35.6
340.5994 35.6
340.6293 35.6
340.6601 35.6
340.6935 35.6
340.7243 36.9
340.7576 36.9
340.7884 38.65
340.8171 41.25
340.8505 41.25
340.8828 43.25
340.9161 45.65
340.9482 45.65
340.9811 48.25
341.0144 50.2
341.0442 50.2
341.0737 51.95
341.1031 53.5
341.1332 53.5
341.1665 55
341.1981 56.55
341.2283 56.55
341.2598 58.5
341.2909 58.5
341.3242 60.25
341.3575 62
341.3909 62
341.4242 63.75
341.4533 65.5
341.4867 67.05
341.52 67.05
341.5533 67.7
341.5823 67.7
341.6128 68.35
341.6461 68.8
341.6795 69.65
341.7086 69.65
341.7392 70.75
341.7698 70.75
341.8031 71.85
341.8329 72.95
341.8643 72.95
341.8945 73.8
341.9261 74.25
341.9595 74.25
341.9928 74.25
342.0214 74.25
342.0547 74.25
342.0845 74.25
342.1178 74.25
342.1467 74.25
342.1759 74.25
342.2093 74.25
342.239 74.25
342.2723 74.25
342.3015 74.25
342.3348 74.25
342.3643 74.25
342.3967 74.25
342.43 74.25
342.4633 74.25
342.4928 74.25
342.5213 74.25
342.5517 74.25
342.585 74.25
342.6143 74.25
342.6446 74.25
342.6779 74.25
342.7112 74.05
342.7446 73.6
342.7737 73.6
342.807 72.7
342.8355 71.65
342.8688 71.65
342.9022 70.75
342.9308 70.1
342.9593 70.1
342.9886 69.65
343.02 69.65
343.0533 69.65
343.084 69.65
343.1144 69.45
343.1455 69.45
343.1789 69.2
343.2122 68.8
343.2425 68.8
343.2718 67.5
343.3011 67.5
343.3298 65.95
343.3632 64.2
343.3965 60.05
343.429 60.05
343.457 52.85
343.4863 52.85
343.5197 45
343.5488 35.15
343.5795 35.15
343.6104 25.95
343.6391 25.95
343.6724 20.05
343.7014 13.75
343.7308 13.75
343.7603 8.3
343.7914 3.25
343.8248 3.25
343.8546 -2.6
343.8879 -8.05
343.9188 -8.05
343.9482 -11.35
343.9816 -13.5
344.011 -13.5
344.0421 -14.85
344.0701 -14.85
344.0999 -17.25
344.1333 -18.75
344.1625 -18.75
344.1902 -20.05
344.2236 -20.75
344.2535 -20.75
344.2869 -21.8
344.3156 -22.9
344.3454 -22.9
344.3764 -24
344.4095 -24.65
344.4429 -24.65
344.4732 -25.3
344.5051 -27.95
344.5343 -27.95
344.5652 -30.8
344.5985 -30.8
344.6319 -34.5
344.6652 -37.75
344.6945 -37.75
344.7278 -40.8
344.7612 -44.1
344.7929 -44.1
344.8239 -47.6
344.8546 -51.1
344.8844 -51.1
344.9177 -52.85
344.9462 -53.5
344.9795 -53.5
345.011 -53.5
345.0443 -53.5
345.0777 -53.5
345.111 -54.8
345.1397 -56.75
345.1702 -56.75
345.2014 -59.6
345.2348 -61.35
345.268 -61.35
345.3014 -61.8
345.3292 -62.25
345.3589 -62.25
345.3922 -62.9
345.4216 -62.9
345.4502 -62.9
345.4812 -62.9
345.5091 -62.9
345.5424 -63.1
345.5706 -63.55
345.6039 -63.55
345.6372 -64.4
345.6701 -64.85
345.7034 -64.85
345.7335 -65.05
345.7668 -65.05
345.7965 -65.05
345.8253 -65.05
345.8586 -65.05
345.8864 -65.05
345.9167 -65.05
345.9463 -65.05
345.9764 -65.05
346.0097 -65.05
346.0395 -65.05
346.0683 -64.85
346.1016 -64.85
346.1296 -64.85
346.1629 -64.4
346.1932 -64
346.2266 -64
346.2593 -63.55
346.2927 -63.1
346.326 -63.1
346.3593 -62.9
346.3879 -62.25
346.4213 -62.25
346.4546 -61.6
346.4879 -61.15
346.5157 -61.15
346.5491 -61.15
346.5775 -61.15
346.6069 -61.15
346.6403 -60.9
346.6696 -60.9
346.7024 -60.9
346.7357 -60.5
346.7686 -60.5
346.8019 -59.6
346.8352 -58.95
346.8645 -57.85
346.8943 -57.85
346.9258 -57.2
346.9591 -55.7
346.9914 -55.7
347.0242 -54.15
347.0555 -52.6
347.086 -52.6
347.1194 -51.1
347.149 -51.1
347.1823 -48.25
347.2156 -45.85
347.249 -44.1
347.2823 -44.1
347.3129 -42.15
347.3446 -40.8
347.378 -40.8
347.4071 -39.5
347.4405 -39.1
347.4732 -39.1
347.5049 -39.1
347.5371 -39.1
347.5661 -39.1
347.5995 -39.1
347.6283 -39.1
347.6609 -39.1
347.6898 -39.1
347.7221 -39.1
347.7554 -39.1
347.7887 -39.1
347.8188 -38.4
347.8477 -38.4
347.8785 -37.75
347.9119 -36.25
347.9423 -36.25
347.9701 -33.6
348.0003 -33.6
348.0336 -30.35
348.067 -27.5
348.0993 -27.5
348.13 -25.55
348.1597 -25.1
348.1898 -25.1
348.2232 -25.1
348.2565 -25.1
348.285 -25.1
348.3183 -25.1
348.3481 -25.1
348.3815 -25.1
348.4122 -25.1
348.4421 -25.1
348.4724 -25.1
348.502 -25.1
348.5353 -25.1
348.5686 -25.1
348.6001 -24
348.6311 -22.05
348.6598 -22.05
348.6931 -19.2
348.7264 -16.35
348.7563 -16.35
348.7862 -14.4
348.8156 -14.4
348.8489 -12.45
348.8822 -11.35
348.9139 -11.35
348.9473 -11.1
348.9798 -10.9
349.0131 -10.9
349.0464 -10.7
349.0769 -10.25
349.1079 -10.25
349.1413 -8.95
349.1746 -7.6
349.2079 -7.6
349.2361 -6.3
349.2662 -5.45
349.2963 -5.45
349.3297 -5
349.3585 -5
349.389 -5
349.4187 -5
349.4509 -5
349.4842 -5
349.5144 -5
349.5429 -5
349.5733 -5
349.6039 -5
349.6372 -5
349.6691 -5
349.6992 -5
349.7315 -5
349.7622 -5
349.7956 -5
349.8252 -5
349.8564 -5
349.8889 -5
349.9223 -5
349.9556 -5
349.9877 -5
350.021 -5
350.0518 -5
350.0822 -5
350.1156 -5
350.146 -5
350.1749 -5
350.2048 -5
350.2327 -5
350.266 -5
350.2935 -5
350.3235 -5
350.3515 -5
350.3849 -5
350.4182 -5
350.4515 -5
350.4811 -5
350.5144 -5
350.5436 -5
350.5769 -5
350.6103 -5
350.6436 -5
350.6746 -5
350.7079 -5.2
350.7413 -5.2
350.7714 -5.2
350.8016 -5.65
350.8315 -5.65
350.8635 -6.55
350.8968 -7.4
350.9291 -7.4
350.9587 -7.85
350.9871 -8.5
351.0175 -8.5
351.0508 -8.95
351.0839 -9.6
351.1143 -9.6
351.1439 -10.25
351.1728 -10.25
351.2061 -11.1
351.2368 -11.55
351.2671 -11.55
351.2963 -11.55
351.3281 -11.55
351.3614 -11.55
351.3904 -11.75
351.4216 -12.45
351.455 -12.45
351.487 -12.85
351.5204 -13.1
351.5518 -13.1
351.5851 -13.1
351.6135 -13.1
351.6431 -13.1
351.6765 -13.5
351.7098 -14.4
351.741 -14.4
351.7706 -15.9
351.8001 -17.25
351.8334 -19.4
351.8622 -19.4
351.8938 -21.6
351.925 -21.6
351.9557 -24
351.989 -26.2
352.019 -26.2
352.0478 -28.6
352.0784 -30.55
352.1089 -30.55
352.1423 -32.3
352.172 -33.85
352.2038 -33.85
352.2329 -36.45
352.2663 -36.45
352.2996 -38.65
352.3329 -41.5
352.3662 -43.65
352.3996 -43.65
352.4312 -45.65
352.4645 -46.5
352.4932 -46.5
352.5256 -47.6
352.5582 -48.45
352.5888 -48.45
352.6222 -49.35
352.6527 -51.3
352.6847 -51.3
352.7152 -52.85
352.7485 -54.8
352.7819 -54.8
352.8152 -55.9
352.8485 -56.35
352.8782 -56.35
352.9109 -57
352.9443 -58.3
352.9767 -58.3
353.0098 -59.4
353.0431 -60.7
353.0712 -60.7
353.1046 -61.15
353.1334 -61.15
353.1655 -61.15
353.1954 -61.15
353.2275 -61.6
353.2608 -61.6
353.2909 -62.25
353.3202 -62.25
353.3535 -62.65
353.3834 -62.65
353.4167 -62.65
353.4467 -62.65
353.4801 -62.65
353.5101 -62.65
353.5435 -62.65
353.5768 -62.65
353.6074 -62.65
353.6369 -62.65
353.6678 -62.65
353.6964 -62.65
353.7297 -62.65
353.7595 -62.65
353.7926 -62.65
353.8205 -62.65
353.85 -62.65
353.8833 -62.65
353.9134 -62.65
353.9424 -62.65
353.9757 -62.65
354.009 -62.65
354.0423 -62.65
354.0714 -62.65
354.1028 -62
354.1321 -62
354.1618 -60.7
354.1951 -59.15
354.2269 -59.15
354.2589 -57.45
354.2909 -55.7
354.32 -55.7
354.3533 -53.3
354.3819 -53.3
354.4131 -51.1
354.4462 -49.55
354.4753 -49.55
354.5087 -48.25
354.5393 -46.7
354.5726 -46.7
354.6042 -45.65
354.6376 -45.4
354.6709 -45.4
354.6986 -45.2
354.7286 -45.2
354.7565 -45.2
354.7866 -45.2
354.82 -45.2
354.8513 -44.55
354.8813 -43.25
354.9147 -43.25
354.9438 -41.7
354.9772 -39.95
355.0078 -39.95
355.0389 -37.1
355.0687 -34.25
355.102 -34.25
355.1353 -31.65
355.1669 -29.05
355.198 -29.05
355.2287 -27.05
355.2589 -27.05
355.2922 -24.9
355.3201 -23.55
355.3511 -23.55
355.3793 -22.25
355.4112 -21.8
355.4445 -21.8
355.4749 -21.15
355.5083 -20.5
355.5409 -20.5
355.5735 -19
355.6069 -17.25
355.6361 -17.25
355.6694 -16.15
355.6971 -16.15
355.7274 -13.95
355.7607 -11.35
355.7932 -11.35
355.8234 -7.85
355.8567 -4.35
355.885 -4.35
355.9184 -1.05
355.9473 3.9
355.9784 3.9
356.0063 8.5
356.0367 8.5
356.07 10.9
356.099 12.85
356.1323 12.85
356.1642 13.75
356.1937 14.85
356.227 14.85
356.2548 16.35
356.2843 19
356.3122 19
356.3429 21.4
356.3763 21.4
356.4096 22.9
356.4379 25.1
356.4712 25.1
356.4997 26.4
356.533 29.7
356.5664 29.7
356.5989 32.3
356.6284 34.05
356.6585 34.05
356.6919 34.95
356.7226 35.8
356.752 35.8
356.7854 36
356.8156 36
356.8489 36.45
356.8809 37.1
356.9108 37.1
356.9382 38.2
356.9688 39.95
357.0021 39.95
357.0355 41.5
357.0688 43.25
357.1016 43.25
357.1339 44.75
357.1672 45.85
357.2006 46.5
357.231 46.5
357.2614 46.5
357.291 46.5
357.3244 46.7
357.3558 47.15
357.3878 47.15
357.4176 48.05
357.4461 48.45
357.4794 48.45
357.5128 48.7
357.5442 48.7
357.5716 48.7
357.6015 48.7
357.6348 48.7
357.6682 48.7
357.7015 48.7
357.7348 48.7
357.7682 48.7
357.8015 48.45
357.8348 48.45
357.8648 48.45
357.8931 48.45
357.9238 48.45
357.9571 48.45
357.9869 48.45
358.0164 48.45
358.0464 48.45
358.0797 48.45
358.1131 48.45
358.1409 48.45
358.1715 48.45
358.2048 48.45
358.2382 48.45
358.2715 48.45
358.3047 48.45
358.3343 48.45
358.3673 48.45
358.3977 48.45
358.4311 48.45
358.4615 48.45
358.4912 48.45
358.5196 48.45
358.5527 48.45
358.5861 48.45
358.6194 48.45
358.6478 48.45
358.6812 48.45
358.7144 48.45
358.7477 48.45
358.7794 48.45
358.8085 48.45
358.8371 48.45
358.8677 48.45
358.9011 48.45
358.9309 48.25
358.9589 48.25
358.9903 47.8
359.0217 46.95
359.0551 46.95
359.0862 46.3
359.1174 45
359.1485 45
359.1798 43.9
359.2131 43.25
359.2449 43.25
359.2783 42.8
359.3116 42.55
359.3404 42.55
359.3737 42.55
359.4018 42.55
359.434 42.55
359.4662 42.55
359.4972 42.55
359.5305 42.55
359.5639 42.55
359.5927 42.55
359.6229 42.55
359.6557 42.35
359.6891 41.5
359.7203 41.5
359.7536 40.4
359.7854 39.1
359.8169 39.1
359.8502 38.2
359.8814 37.35
359.9123 37.35
359.9438 36.65
359.9749 36.65
360.0082 35.6
360.0391 34.25
360.0718 32.75
360.1009 32.75
360.1305 31
360.1638 31
360.1935 30.1
360.2247 29.05
360.2567 29.05
360.2865 28.15
360.3199 26.85
360.3513 26.85
360.3828 24.9
360.4144 22.9
360.4477 22.9
360.481 20.95
360.5144 19
360.5443 19
360.5763 17.65
360.6096 16.15
360.643 15.05
360.671 15.05
360.7006 14.15
360.7301 14.15
360.7635 12.65
360.7968 11.35
360.8301 11.35
360.8614 9.8
360.8947 9.15
360.9252 9.15
360.9585 9.15
360.9919 9.15
361.0252 8.95
361.0555 8.95
361.0869 8.05
361.1202 6.95
361.1528 6.95
361.1844 6.1
361.2176 5
361.2508 5
361.2842 3.9
361.3174 2.8
361.3491 2.8
361.3789 1.95
361.4086 1.95
361.4419 0.4
361.4753 -0.2
361.5044 -0.2
361.534 -0.2
361.5638 -0.2
361.5971 -0.2
361.6302 -0.2
361.6603 -0.2
361.6923 -0.2
361.7256 -0.2
361.7589 -0.2
361.79 -0.2
361.8207 -0.2
361.8521 -0.85
361.8854 -1.7
361.9187 -1.7
361.9521 -2.8
361.9843 -3.25
362.0166 -3.25
362.0472 -3.25
362.0805 -3.25
362.1119 -3.25
362.1407 -3.25
362.1741 -3.25
362.2047 -3.25
362.2381 -3.25
362.2679 -3.25
362.3007 -3.25
362.334 -3.25
362.3642 -3.25
362.3976 -3.25
362.4309 -3.25
362.4632 -3.25
362.4933 -3.25
362.5249 -3.25
362.5583 -3.25
362.5909 -3.45
362.6242 -4.15
362.6576 -4.8
362.6891 -4.8
362.7224 -5.65
362.7522 -5.85
362.7855 -5.85
362.8188 -5.85
362.8522 -5.85
362.8855 -5.85
362.9143 -5.85
362.9443 -5.85
362.9741 -5.85
363.0074 -5.85
363.0359 -5.85
363.0665 -5.85
363.0949 -5.85
363.1246 -5.85
363.1579 -5.85
363.1873 -5.85
363.2159 -5.85
363.2482 -5.85
363.2772 -5.85
363.3105 -5.85
363.3407 -5.85
363.374 -5.85
363.404 -5.85
363.4367 -5.85
363.4701 -5.85
363.5021 -5.85
363.5303 -5.85
363.5606 -5.85
363.5911 -5.85
363.6245 -5.85
363.6544 -5.85
363.6877 -5.85
363.7163 -5.85
363.7479 -5.85
363.7813 -5.85
363.8134 -5.85
363.8468 -5.65
363.8763 -5.65
363.9054 -5.45
363.9387 -5.45
363.9677 -5.45
363.9973 -5.2
364.0261 -5.2
364.0574 -5.2
364.0907 -5.2
364.1234 -5.2
364.1553 -5.2
364.1852 -5.2
364.2143 -5.2
364.2476 -5.2
364.2786 -5.2
364.3102 -5.2
364.3435 -5.2
364.3742 -5.2
364.4076 -5.2
364.4391 -5.2
364.4705 -5.2
364.5038 -5.2
364.5338 -5.2
364.5671 -5.2
364.6005 -5.2
364.6303 -5.2
364.6586 -5.2
364.6914 -5.2
364.7247 -5.2
364.7581 -5.2
364.7914 -5.2
364.8207 -5.2
364.8521 -5.2
364.8854 -5.2
364.9148 -5.2
364.9445 -5.2
364.9763 -5.2
365.0073 -5.2
365.0406 -5.2
365.0739 -5.2
365.1073 -5.2
365.1406 -5.2
365.17 -5.2
365.2033 -5.2
365.2313 -5.2
365.2608 -5.2
365.2905 -5.2
365.3209 -5.2
365.3542 -5.2
365.3876 -5.2
365.4157 -5.2
365.4455 -5.2
365.476 -5.2
365.5094 -5.2
365.5394 -5
365.5685 -5
365.5966 -4.55
365.6277 -4.55
365.661 -3.7
365.6927 -2.8
365.7204 -2.8
365.7537 -2.15
365.7868 -1.5
365.8202 -0.85
365.8512 -0.85
365.8846 0
365.9179 1.3
365.9512 2.4
365.9845 2.4
366.0179 4.15
366.0485 5.85
366.0818 5.85
366.1145 6.95
366.1479 7.85
366.1795 7.85
366.2128 7.85
366.2441 7.85
366.2754 7.85
366.3087 7.85
366.3421 7.85
366.3754 7.85
366.4088 7.85
366.4381 8.3
366.4715 9.35
366.5015 10.25
366.5323 10.25
366.5633 11.35
366.5942 11.35
366.6275 12
366.6588 12.65
366.6909 12.65
366.7242 13.75
366.7535 15.25
366.7869 15.25
366.8153 16.8
366.8486 18.75
366.88 18.75
366.912 21.4
366.9453 23.8
366.977 23.8
367.0054 26.4
367.0353 29.9
367.0679 29.9
367.1012 32.95
367.1292 32.95
367.1625 34.95
367.1948 37.55
367.2281 38.65
367.2615 38.65
367.2922 39.95
367.3211 39.95
367.3529 41.05
367.3823 41.9
367.4156 42.8
367.4483 42.8
367.4816 44.1
367.5149 45.2
367.5483 45.2
367.5816 46.5
367.6125 47.8
367.6426 47.8
367.6739 48.9
367.7072 50.45
367.7406 50.45
367.7698 52.2
367.8031 53.5
367.8328 53.5
367.8633 54.8
367.8967 56.35
367.93 56.35
367.958 58.1
367.9874 58.1
368.0193 59.15
368.0527 60.7
368.0849 61.8
368.1179 61.8
368.148 63.3
368.1794 65.3
368.2127 65.3
368.246 66.8
368.2738 68.8
368.3071 68.8
368.3405 70.55
368.3738 72.3
368.4071 72.3
368.4405 73.35
368.4707 74.9
368.5021 74.9
368.5355 76
368.5667 77.3
368.5961 77.3
368.6287 78.2
368.6619 79.5
368.6953 79.5
368.725 80.6
368.7584 81.25
368.7916 81.25
368.824 81.65
368.8573 81.65
368.8906 81.65
368.9201 81.65
368.9535 81.65
368.9861 81.65
369.0194 81.65
369.0526 81.9
369.0847 82.1
369.1158 82.1
369.1472 83
369.1805 83.85
369.2123 83.85
369.2426 84.95
369.2759 84.95
369.3047 86.7
369.3381 88.25
369.3685 89.75
369.3988 89.75
369.4293 91.7
369.4604 91.7
369.4937 93.25
369.525 95.2
369.5583 95.2
369.5914 96.55
369.6203 98.3
369.6537 98.3
369.6822 100
369.7123 101.75
369.7433 101.75
369.7747 103.1
369.8081 104.4
369.8414 104.4
369.8719 105.5
369.9019 106.6
369.9352 106.6
369.9686 107.65
370.0008 109.2
370.0341 109.2
370.0661 110.05
370.0962 111.6
370.1295 111.6
370.1629 112.5
370.1943 113.35
370.2276 113.35
370.2567 114.65
370.29 115.75
370.3215 115.75
370.3548 117.05
370.3843 117.95
370.414 117.95
370.4474 118.8
370.4807 119.7
370.514 119.7
370.5454 120.55
370.5741 121.85
370.6075 121.85
370.6365 123.2
370.6678 124.7
370.6964 124.7
370.7261 126.25
370.7595 127.35
370.7894 127.35
370.8176 128
370.8475 128
370.8778 128
370.9111 128
370.9423 128
370.9757 128
371.0045 128
371.0364 128
371.0698 128
371.1007 128
371.1307 128
371.1617 128
371.1912 128
371.2245 128
371.2536 128
371.287 128
371.3155 128
371.3464 128
371.3797 128
371.4101 128
371.4434 128
371.4767 128
371.5067 128
371.54 128
371.5704 128
371.6037 128
371.6339 128
371.664 128
371.6973 128
371.7306 128
371.7598 128
371.7888 128
371.8198 128
371.8531 128
371.882 128
371.9119 128
371.9403 128
371.9722 128
372.0055 128
372.0367 128
372.0672 128
372.1005 128
372.1339 128
372.1672 128
372.1965 128
372.2261 128
372.2555 128
372.2858 128
372.3191 128
372.3491 128
372.3773 128
372.4069 128
372.4362 128
372.4695 128
372.4983 128
372.5279 128
372.5585 128
372.589 128
372.6224 128
372.6557 127.55
372.689 126.65
372.7205 126.65
372.7506 125.35
372.784 124.05
372.8138 124.05
372.8438 123.4
372.8758 123.4
372.9091 123.2
372.9425 123.2
372.975 123.2
373.0084 123.2
373.039 123.2
373.0689 123.2
373.1022 123.2
373.1356 123.2
373.1663 123.2
373.1953 123.2
373.2286 123.2
373.2619 123.2
373.2919 122.75
373.3217 121.65
373.3512 121.65
373.3806 120.1
373.414 117.95
373.4435 117.95
373.4728 115.3
373.5045 115.3
373.5378 112.5
373.5712 110.05
373.6028 107
373.6361 107
373.6695 105.5
373.7028 103.95
373.7361 103.95
373.7657 102.65
373.7961 101.75
373.8247 101.75
373.8581 101.1
373.8914 100.9
373.9247 100.9
373.9543 100.9
373.9838 100.9
374.0142 100.9
374.0475 100.9
374.0808 100.9
374.1142 100.9
374.1475 100.9
374.18 100.7
374.2134 100.7
374.2467 100
374.28 98.5
374.3105 98.5
374.3401 96.3
374.3734 93.45
374.4023 93.45
374.4316 91.3
374.4621 88.25
374.4939 88.25
374.5273 86.05
374.5606 83.85
374.5939 83.85
374.6273 80.6
374.6581 77.95
374.6914 75.8
374.7219 75.8
374.7537 72.95
374.7862 72.95
374.8195 70.3
374.8529 66.6
374.8846 62.65
374.9147 62.65
374.9481 59.4
374.9765 59.4
375.0099 55.25
375.0407 51.75
375.0741 51.75
375.1043 48.25
375.1353 45.2
375.1686 45.2
375.2019 43.25
375.2348 40.15
375.2664 40.15
375.2997 37.1
375.333 33.85
375.3664 30.35
375.3964 30.35
375.4245 27.7
375.4568 27.7
375.4902 25.3
375.5235 22.5
375.5569 19.85
375.5858 19.85
375.6153 17.65
375.6486 15.25
375.6777 15.25
375.711 13.95
375.7395 13.95
375.7722 11.75
375.8056 10.45
375.8389 8.7
375.8687 8.7
375.8987 7.85
375.9273 7.85
375.9606 6.75
375.9921 6.3
376.022 6.3
376.0553 6.3
376.0867 6.3
376.1201 6.3
376.152 6.3
376.1853 6.3
376.2187 6.3
376.2487 6.3
376.282 6.3
376.3154 6.3
376.3487 6.3
376.382 6.3
376.4121 6.3
376.4454 6.3
376.4757 6.3
376.5061 6.3
376.5394 6.3
376.567 6.3
376.6003 6.3
376.6336 6.3
376.6631 6.3
376.6925 6.3
376.7258 6.3
376.7591 6.3
376.7924 6.3
376.8224 6.3
376.8525 6.3
376.8825 6.3
376.9159 6.3
376.9449 6.3
376.9761 6.3
377.0094 6.3
377.0394 6.3
377.0727 6.3
377.1021 6.3
377.1339 6.3
377.1664 6.3
377.1998 6.3
377.2331 6.3
377.2664 6.3
377.2966 6.3
377.3277 6.3
377.361 6.3
377.3943 6.3
377.4254 6.3
377.4539 6.3
377.4848 6.3
377.5133 6.3
377.5466 6.3
377.5745 6.3
377.6078 6.3
377.6363 6.3
377.6685 6.3
377.7019 6.3
377.7352 6.3
377.7641 6.3
377.7956 6.3
377.825 6.3
377.8584 6.3
377.8892 6.3
377.9206 6.3
377.9503 6.3
377.9806 6.3
378.0139 6.3
378.0472 6.3
378.0769 6.3
378.1095 6.3
378.1383 6.3
378.1717 6.3
378.2 6.3
378.2297 6.3
378.263 6.3
378.293 6.3
378.3263 6.3
378.3578 6.3
378.3875 6.3
378.4162 6.3
378.449 6.3
378.4823 6.3
378.5157 6.3
378.5465 6.3
378.578 6.3
378.6077 6.3
378.641 6.3
378.6701 6.3
378.7 6.3
378.7334 6.3
378.7667 6.3
378.8 6.3
378.8334 6.3
378.8649 6.3
378.8964 6.3
378.9297 6.3
378.9631 6.3
378.9964 6.3
379.0278 6.3
379.0604 6.3
379.0937 6.3
379.127 6.3
379.1604 6.3
379.1928 6.3
379.2215 6.3
379.2549 6.3
379.2882 6.3
379.3209 6.3
379.3529 6.3
379.3831 6.3
379.4122 6.3
379.4455 6.3
379.4781 6.3
379.5114 6.3
379.5412 6.3
379.5745 6.3
379.6078 6.3
379.6377 6.3
379.6692 6.3
379.6989 6.3
379.7299 6.3
379.7633 6.3
379.7933 6.3
379.8251 6.3
379.8571 6.3
379.8904 6.3
379.9238 6.3
379.9571 6.3
379.9904 6.3
380.0221 6.3
380.0529 6.3
380.0862 6.3
380.1176 6.3
380.1489 6.3
380.1786 6.3
380.2119 6.3
380.2453 6.3
380.2752 6.3
380.304 6.3
380.336 6.3
380.3657 6.3
380.399 6.3
380.4324 6.3
380.4644 6.3
380.4965 6.3
380.5298 6.3
380.5632 6.3
380.5965 6.3
380.6267 6.3
380.6601 6.3
380.6909 6.3
380.7243 6.3
380.7524 6.3
380.7831 6.3
380.8132 6.3
380.8456 6.3
380.8789 6.3
380.9123 6.3
380.9456 6.3
380.9769 6.3
381.0066 6.3
381.0399 6.3
381.0692 6.3
381.0983 6.3
381.127 6.3
381.1568 6.3
381.1901 6.3
381.2201 6.3
381.2512 6.3
381.2813 6.3
381.3114 6.3
381.3447 6.3
381.3781 6.3
381.4087 6.3
381.4409 6.3
381.4742 6.3
381.5075 6.3
381.5409 6.3
381.5699 6.3
381.6015 6.3
381.6348 6.3
381.6682 6.3
381.6988 6.3
381.7321 6.3
381.7639 6.3
381.7968 6.3
381.8301 6.3
381.8634 6.3
381.8967 6.3
381.9301 6.3
381.9634 6.3
381.9967 6.3
382.0284 6.3
382.058 6.3
382.0904 6.3
382.122 6.3
382.1554 6.3
382.1882 6.3
382.2169 6.3
382.2502 6.3
382.2804 6.3
382.3138 6.3
382.3422 6.3
382.3755 6.3
382.4046 6.3
382.438 6.3
382.4713 6.3
382.5029 6.3
382.5356 6.3
382.569 6.3
382.6011 6.3
382.6344 6.3
382.6678 6.3
382.7004 6.3
382.7328 6.3
382.7661 6.3
382.7994 6.3
382.8297 6.3
382.8592 6.3
382.8916 6.3
382.9249 6.3
382.9583 6.3
382.9882 6.3
383.0215 6.3
383.0498 6.3
383.0795 6.3
383.1128 6.3
383.1428 6.3
383.1761 6.3
383.2074 6.3
383.2398 6.3
383.2732 6.3
383.3013 6.3
383.3346 6.3
383.3664 6.3
383.3969 6.3
383.4302 6.3
383.4635 6.3
383.4928 6.3
383.5262 6.3
383.5595 6.3
383.5928 6.3
383.6258 6.3
383.658 6.3
383.6868 6.3
383.7201 6.3
383.7534 6.3
383.7867 6.3
383.8191 6.3
383.8495 6.3
383.8818 6.3
383.9151 6.3
383.9458 6.3
383.9792 6.3
384.0087 6.3
384.0394 6.3
384.0728 6.3
384.1024 6.3
384.135 6.3
384.1647 6.3
384.1962 6.3
384.2296 6.3
384.2629 6.3
384.2932 6.3
384.3236 6.3
384.3543 6.3
384.3876 6.3
384.4167 6.3
384.4455 6.3
384.4783 6.3
384.5117 6.3
384.545 6.3
384.5735 6.3
384.6042 6.3
384.6326 6.3
384.6628 6.3
384.6961 6.3
384.7267 6.3
384.7601 6.3
384.7917 6.3
384.8221 6.3
384.8554 6.3
384.8865 6.3
384.9172 6.3
384.9461 6.3
384.9773 6.3
385.0106 6.3
385.0433 6.3
385.0732 6.3
385.1035 6.3
385.1357 6.3
385.169 6.3
385.1992 6.3
385.2286 6.3
385.262 6.3
385.292 6.3
385.3253 6.3
385.3586 6.3
385.3911 6.3
385.4216 6.3
385.4541 6.3
385.4875 6.3
385.5166 6.3
385.55 6.3
385.5797 6.3
385.6104 6.3
385.6438 6.3
385.6752 6.3
385.7037 6.3
385.737 6.3
385.7666 6.3
385.7999 6.3
385.8295 6.3
385.8594 6.3
385.8885 6.3
385.9218 6.3
385.9552 6.3
385.9885 6.3
386.0187 6.3
386.0505 6.3
386.0839 6.3
386.1172 6.3
386.1472 6.3
386.1805 6.3
386.2138 6.3
386.2472 6.3
386.2805 6.3
386.3103 6.3
386.3389 6.3
386.3722 6.3
386.4046 6.3
386.4379 6.3
386.4684 6.3
386.4986 6.3
386.5297 6.3
386.5612 6.3
386.5945 6.3
386.6269 6.3
386.6602 6.3
386.6935 6.3
386.7267 6.3
386.76 6.3
386.7888 6.3
386.8204 6.3
386.8494 6.3
386.88 6.3
386.9133 6.3
386.9466 6.3
386.9746 6.3
387.0079 6.3
387.037 6.3
387.0703 6.3
387.099 6.3
387.1296 6.3
387.1585 6.3
387.1894 6.3
387.2227 6.3
387.2538 6.3
387.2871 6.3
387.3163 6.3
387.3492 6.3
387.3826 6.3
387.4159 6.3
387.4492 6.3
387.4773 6.3
387.5103 6.3
387.5436 6.3
387.577 6.3
387.6082 6.3
387.6407 6.3
387.674 6.3
387.7074 6.3
387.7369 6.3
387.7695 6.3
387.7975 6.3
387.8292 6.3
387.8625 6.3
387.8959 6.3
387.9258 6.3
387.9568 6.3
387.9854 6.3
388.0187 6.3
388.0484 6.3
388.0777 6.3
388.1066 6.3
388.1399 6.3
388.1732 6.3
388.2066 6.3
388.2385 6.3
388.2718 6.3
388.3019 6.3
388.3352 6.3
388.3686 6.3
388.4007 6.3
388.432 6.3
388.4623 6.3
388.4956 6.3
388.5284 6.3
388.5617 6.3
388.595 6.3
388.6265 6.3
388.6598 6.3
388.6896 6.3
388.7199 6.3
388.7489 6.3
388.7789 6.3
388.8122 6.3
388.8434 6.3
388.8767 6.3
388.9073 6.3
388.9381 6.3
388.9714 6.3
389.0018 6.3
389.0351 6.3
389.0639 6.3
389.0973 6.3
389.1306 6.3
389.1634 6.3
389.1953 6.3
389.227 6.3
389.258 6.3
389.2914 6.3
389.3247 6.3
389.3544 6.3
389.3841 6.3
389.4174 6.3
389.4507 6.3
389.4801 6.3
389.5123 6.3
389.5444 6.3
389.5742 6.3
389.6075 6.3
389.6408 6.3
389.6742 6.3
389.7037 6.3
389.7343 6.3
389.7677 6.3
389.7973 6.3
389.8306 6.3
389.8614 6.3
389.8899 6.3
389.9232 6.3
389.9524 6.3
389.9833 6.3
390.0152 6.3
390.0476 6.3
390.0809 6.3
390.1132 6.3
390.1466 6.3
390.1799 6.3
390.2117 6.3
390.245 6.3
390.2739 6.3
390.3058 6.3
390.3391 6.3
390.3692 6.3
390.4025 6.3
390.4359 6.3
390.4692 6.3
390.5 6.3
390.5294 6.3
390.5627 6.3
390.5951 6.3
390.6279 6.3
390.6613 6.3
390.6937 6.3
390.727 6.3
390.7594 6.3
390.7901 6.3
390.8209 6.3
390.8542 6.3
390.8876 6.3
390.9209 6.3
390.9543 6.3
390.9851 6.3
391.0184 6.3
391.0517 6.3
391.0813 6.3
391.1131 6.3
391.1465 6.3
391.1797 6.3
391.213 6.3
391.2415 6.3
391.2748 6.3
391.3081 6.3
391.3415 6.3
391.3748 6.3
391.4056 6.3
391.4389 6.3
391.4695 6.3
391.4981 6.3
391.5314 6.3
391.5613 6.3
391.5914 6.3
391.6209 6.3
391.6543 6.3
391.6876 6.3
391.7209 6.3
391.7518 6.3
391.7835 6.3
391.8151 6.3
391.8484 6.3
391.8772 6.3
391.9106 6.3
391.9415 6.3
391.9742 6.3
392.0076 6.3
392.0409 6.3
392.0721 6.3
392.1021 6.3
392.1343 6.3
392.1677 6.3
392.1968 6.3
392.229 6.3
392.2617 6.3
392.2924 6.3
392.3257 6.3
392.359 6.3
392.3898 6.3
392.4197 6.3
392.4488 6.3
392.4821 6.3
392.514 6.3
392.5437 6.3
392.5729 6.3
392.605 6.3
392.6383 6.3
392.6692 6.3
392.699 6.3
392.7318 6.3
392.7644 6.3
392.7977 6.3
392.8266 6.3
392.8599 6.3
392.8897 6.3
392.9201 6.3
392.9535 6.3
392.9857 6.3
393.019 6.3
393.0493 6.3
393.0826 6.3
393.1159 6.3
393.1486 6.3
393.1782 6.3
393.2115 6.3
393.2438 6.3
393.2771 6.3
393.3105 6.3
393.3437 6.3
393.377 6.3
393.4104 6.3
393.4437 6.3
393.4721 6.3
393.5022 6.3
393.5309 6.3
393.5642 6.3
393.5975 6.3
393.6268 6.3
393.6556 6.3
393.6857 6.3
393.7145 6.3
393.7478 6.3
393.7759 6.3
393.8083 6.3
393.8396 6.3
393.873 6.3
393.9063 6.3
393.939 6.3
393.9683 6.3
393.9987 6.3
394.0293 6.3
394.0626 6.3
394.0921 6.3
394.1255 6.3
394.1552 6.3
394.1885 6.3
394.2219 6.3
394.2513 6.3
394.2808 6.3
394.3141 6.3
394.3463 6.3
394.3796 6.3
394.4129 6.3
394.4463 6.3
394.4785 6.3
394.5104 6.3
394.5437 6.3
394.5754 6.3
394.6041 6.3
394.6375 6.3
394.6679 6.3
394.7013 6.3
394.7307 6.3
394.7641 6.3
394.7945 6.3
394.8278 6.3
394.8611 6.3
394.8945 6.3
394.9249 6.3
394.9565 6.3
394.9857 6.3
395.0191 6.3
395.0487 6.3
395.0785 6.3
395.1089 6.3
395.1407 6.3
395.174 6.3
395.204 6.3
395.2339 6.3
395.2654 6.3
395.2941 6.3
395.3274 6.3
395.3607 6.3
395.3925 6.3
395.4259 6.3
395.4564 6.3
395.4897 6.3
395.5231 6.3
395.5507 6.3
395.5834 6.3
395.6129 6.3
395.6462 6.3
395.6749 6.3
395.7083 6.3
395.7385 6.3
395.7718 6.3
395.8051 6.3
395.8374 6.3
395.8701 6.3
395.9034 6.3
395.9365 6.3
395.9698 6.3
395.9988 6.3
396.0291 6.3
396.0583 6.3
396.0916 6.3
396.1249 6.3
396.1563 6.3
396.1842 6.3
396.2139 6.3
396.2436 6.3
396.2769 6.3
396.3103 6.3
396.3436 6.3
396.3731 6.3
396.4049 6.3
396.4382 6.3
396.4686 6.3
396.498 6.3
396.5273 6.3
396.5606 6.3
396.5939 6.3
396.6227 6.3
396.656 6.3
396.6845 6.3
396.7177 6.3
396.7511 6.3
396.7801 6.3
396.8134 6.3
396.8467 6.3
396.8763 6.3
396.9097 6.3
396.9416 6.3
396.973 6.3
397.003 6.3
397.0361 6.3
397.0694 6.3
397.0985 6.3
397.1281 6.3
397.1571 6.3
397.1869 6.3
397.2202 6.3
397.2499 6.3
397.2833 6.3
397.3148 6.3
397.3482 6.3
397.3815 6.3
397.4149 6.3
397.4451 6.3
397.4785 6.3
397.5073 6.3
397.5406 6.3
397.5708 6.3
397.6041 6.3
397.6333 6.3
397.6666 6.3
397.7 6.3
397.7333 6.3
397.7651 6.3
397.7953 6.3
397.8235 6.3
397.8569 6.3
397.8902 6.3
397.9236 6.3
397.9541 6.3
397.986 6.3
398.0194 6.3
398.05 6.3
398.0781 6.3
398.1097 6.3
398.1398 6.3
398.1732 6.3
398.202 6.3
398.2354 6.3
398.265 6.3
398.2946 6.3
398.3279 6.3
398.3579 6.3
398.3912 6.3
398.4236 6.3
398.4529 6.3
398.4862 6.3
398.5172 6.3
398.5505 6.3
398.5793 6.3
398.6107 6.3
398.6441 6.3
398.6763 6.3
398.7084 6.3
398.7418 6.3
398.7739 6.3
398.8073 6.3
398.8355 6.3
398.8688 6.3
398.9022 6.3
398.9322 6.3
398.9655 6.3
398.9966 6.3
399.0289 6.3
399.0612 6.3
399.0925 6.3
399.1258 6.3
399.1585 6.3
399.1888 6.3
399.218 6.3
399.2513 6.3
399.2846 6.3
399.3152 6.3
399.3454 6.3
399.3787 6.3
399.4098 6.3
399.4431 6.3
399.476 6.3
399.5093 6.3
399.5392 6.3
399.5689 6.3
399.6022 6.3
399.6356 6.3
399.6674 6.3
399.6969 6.3
399.7303 6.3
399.7636 6.3
399.7936 6.3
399.8239 6.3
399.8521 6.3
399.8841 6.3
399.9174 6.3
399.9484 6.3
399.9795 6.3
400.0128 6.3
400.0436 6.3
400.0769 6.3
400.1103 6.3
400.1436 6.3
400.1769 6.3
400.2094 6.3
400.2427 6.3
400.2743 6.3
400.3029 6.3
400.3362 6.3
400.3644 6.3
400.3978 6.3
400.427 6.3
400.4583 6.3
400.4871 6.3
400.5204 6.3
400.5538 6.3
400.5871 6.3
400.6204 6.3
400.6505 6.3
400.6838 6.3
400.7171 6.3
400.7475 6.3
400.7781 6.3
400.8115 6.3
400.8443 6.3
400.8776 6.3
400.9077 6.3
400.9411 6.3
400.9723 6.3
401.0039 6.3
401.0373 6.3
401.0681 6.3
401.1014 6.3
401.1302 6.3
401.1614 6.3
401.1947 6.3
401.2248 6.3
401.2559 6.3
401.287 6.3
401.3204 6.3
401.3537 6.3
401.3853 6.3
401.4152 6.3
401.4456 6.3
401.4756 6.3
401.5089 6.3
401.5412 6.3
401.5745 6.3
401.6078 6.3
401.6385 6.3
401.6718 6.3
401.703 6.3
401.7328 6.3
401.7613 6.3
401.7946 6.3
401.828 6.3
401.8613 6.3
401.8897 6.3
401.9222 6.3
401.9556 6.3
401.9889 6.3
402.0201 6.3
402.0496 6.3
402.0782 6.3
402.1116 6.3
402.1449 6.3
402.1782 6.3
402.2115 6.3
402.2449 6.3
402.2734 6.3
402.3067 6.3
402.3371 6.3
402.3704 6.3
402.4008 6.3
402.431 6.3
402.4644 6.3
402.4948 6.3
402.5245 6.3
402.5573 6.3
402.5899 6.3
402.6233 6.3
402.6566 6.3
402.6879 6.3
402.7161 6.3
402.7481 6.3
402.7814 6.3
402.8121 6.3
402.8428 6.3
402.8762 6.3
402.906 6.3
402.9393 6.3
402.9693 6.3
403.0007 6.3
403.0327 6.3
403.0631 6.3
403.0964 6.3
403.1274 6.3
403.1577 6.3
403.19 6.3
403.2234 6.3
403.2567 6.3
403.2859 6.3
403.318 6.3
403.3513 6.3
403.3831 6.3
403.4164 6.3
403.4498 6.3
403.4831 6.3
403.5164 6.3
403.5469 6.3
403.5803 6.3
403.6096 6.3
403.6393 6.3
403.6711 6.3
403.7045 6.3
403.7378 6.3
403.7697 6.3
403.8004 6.3
403.8326 6.3
403.8622 6.3
403.8956 6.3
403.9275 6.3
403.9577 6.3
403.9868 6.3
404.0182 6.3
404.0516 6.3
404.0815 6.3
404.1135 6.3
404.1468 6.3
404.1784 6.3
404.2118 6.3
404.2401 6.3
404.2726 6.3
404.3034 6.3
404.3337 6.3
404.367 6.3
404.3965 6.3
404.4299 6.3
404.4626 6.3
404.496 6.3
404.5293 6.3
404.5578 6.3
404.5882 6.3
404.6177 6.3
404.6487 6.3
404.682 6.3
404.7123 6.3
404.7415 6.3
404.7729 6.3
404.8023 6.3
404.8356 6.3
404.8681 6.3
404.8982 6.3
404.9303 6.3
404.9605 6.3
404.9938 6.3
405.0241 6.3
405.0557 6.3
405.0887 6.3
405.122 6.3
405.1554 6.3
405.1843 6.3
405.2137 6.3
405.2429 6.3
405.2745 6.3
405.3078 6.3
405.3381 6.3
405.3658 6.3
405.3991 6.3
405.4275 6.3
405.4608 6.3
405.4909 6.3
405.5209 6.3
405.5511 6.3
405.5816 6.3
405.6149 6.3
405.6483 6.3
405.6804 6.3
405.7137 6.3
405.7468 6.3
405.7801 6.3
405.8083 6.3
405.8416 6.3
405.8701 6.3
405.9 6.3
405.9333 6.3
405.9631 6.3
405.9931 6.3
406.0231 6.3
406.0565 6.3
406.0898 6.3
406.1205 6.3
406.1501 6.3
406.1791 6.3
406.2102 6.3
406.2435 6.3
406.2768 6.3
406.3072 6.3
406.3369 6.3
406.3675 6.3
406.4008 6.3
406.4342 6.3
406.4647 6.3
406.498 6.3
406.5273 6.3
406.5606 6.3
406.594 6.3
406.6241 6.3
406.6568 6.3
406.6896 6.3
406.7229 6.3
406.7562 6.3
406.786 6.3
406.8147 6.3
406.8451 6.3
406.8784 6.3
406.9117 6.3
406.9399 6.3
406.9733 6.3
407.0066 6.3
407.0399 6.3
407.069 6.3
407.1011 6.3
407.1294 6.3
407.1625 6.3
407.1958 6.3
407.2292 6.3
407.2583 6.3
407.2916 6.3
407.321 6.3
407.3543 6.3
407.3868 6.3
407.4164 6.3
407.4498 6.3
407.4798 6.3
407.5132 6.3
407.5443 6.3
407.5777 6.3
407.6071 6.3
407.6404 6.3
407.6738 6.3
407.7031 6.3
407.7361 6.3
407.7694 6.3
407.8022 6.3
407.8355 6.3
407.8673 6.3
407.9004 6.3
407.9337 6.3
407.9631 6.3
407.9964 6.3
408.0254 6.3
408.0572 6.3
408.0863 6.3
408.1197 6.3
408.153 6.3
408.1863 6.3
408.2163 6.3
408.2482 6.3
408.2793 6.3
408.3127 6.3
408.3414 6.3
408.3747 6.3
408.4081 6.3
408.4389 6.3
408.4723 6.3
408.502 6.3
408.5305 6.3
408.5612 6.3
408.5927 6.3
408.6261 6.3
408.6547 6.3
408.6848 6.3
408.7182 6.3
408.7483 6.3
408.7816 6.3
408.8123 6.3
408.8431 6.3
408.8728 6.3
408.9017 6.3
408.935 6.3
408.9639 6.3
408.9973 6.3
409.0257 6.3
409.0563 6.3
409.0896 6.3
409.1229 6.3
409.1542 6.3
409.1844 6.3
409.213 6.3
409.2463 6.3
409.2796 6.3
409.3129 6.3
409.3441 6.3
409.3757 6.3
409.409 6.3
409.4402 6.3
409.471 6.3
409.5043 6.3
409.5345 6.3
409.5678 6.3
409.6011 6.3
409.6307 6.3
409.6595 6.3
409.6918 6.3
409.7251 6.3
409.7584 6.3
409.7882 6.3
409.8215 6.3
409.8549 6.3
409.8882 6.3
409.9207 6.3
409.954 6.3
409.9872 6.3
410.0192 6.3
410.0525 6.3
410.0841 6.3
410.1133 6.3
410.1466 6.3
410.1761 6.3
410.2094 6.3
410.2428 6.3
410.2761 6.3
410.3094 6.3
410.3407 6.3
410.3741 6.3
410.4045 6.3
410.4344 6.3
410.4652 6.3
410.4944 6.3
410.5277 6.3
410.5611 6.3
410.5906 6.3
410.6201 6.3
410.6512 6.3
410.6846 6.3
410.7168 6.3
410.7501 6.3
410.7834 6.3
410.813 6.3
410.8463 6.3
410.8766 6.3
410.9083 6.3
410.9416 6.3
410.9749 6.3
411.0083 6.3
411.0416 6.3
411.0712 6.3
411.1045 6.3
411.1338 6.3
411.1671 6.3
411.1968 6.3
411.2301 6.3
411.2592 6.3
411.2923 6.3
411.3256 6.3
411.357 6.3
411.3868 6.3
411.4202 6.3
411.4535 6.3
411.4868 6.3
411.5182 6.3
411.55 6.3
411.5833 6.3
411.6156 6.3
411.6489 6.3
411.6823 6.3
411.7156 6.3
411.7466 6.3
411.7779 6.3
411.8112 6.3
411.8437 6.3
411.8742 6.3
411.9076 6.3
411.9378 6.3
411.9711 6.3
412.0044 6.3
412.0346 6.3
412.0667 6.3
412.1001 6.3
412.1334 6.3
412.1667 6.3
412.2001 6.3
412.231 6.3
412.262 6.3
412.2953 6.3
