時間[s] タイヤの舵角[deg]
0 0
0.02 -3.05
0.05333333 -3.05
0.08666666 -3.05
0.12 -3.05
0.1533194 -3.05
0.1866527 -3.05
0.2144251 -3.05
0.2419305 -3.05
0.2706481 -3.05
0.2992169 -3.05
0.3292754 -3.05
0.360443 -3.05
0.3905248 -3.05
0.4238582 -3.05
0.4571915 -3.05
0.4855293 -3.05
0.5165221 -3.05
0.5451852 -3.05
0.5736763 -3.05
0.6021775 -3.05
0.6319635 -3.05
0.6615488 -3.05
0.6916278 -3.05
0.7199527 -3.05
0.753286 -3.05
0.7839279 -3.05
0.8172613 -3.05
0.8473132 -3.05
0.8800299 -3.05
0.9075161 -3.05
0.9351729 -3.05
0.9635609 -3.05
0.9935039 -3.05
1.026837 -3.05
1.055026 -3.05
1.086515 -3.05
1.116465 -3.05
1.145713 -3.05
1.176038 -3.05
1.202663 -3.05
1.235608 -3.05
1.264994 -3.05
1.292679 -3.05
1.319199 -3.05
1.352532 -3.05
1.385865 -3.05
1.419199 -3.05
1.452532 -3.05
1.482626 -3.05
1.514932 -3.05
1.54212 -3.05
1.571044 -3.05
1.600279 -3.25
1.632741 -3.25
1.660761 -3.25
1.690151 -3.25
1.722493 -3.25
1.754732 -3.25
1.788065 -3.25
1.816051 -3.25
1.845931 -3.25
1.879264 -3.25
1.912597 -3.25
1.939756 -3.25
1.969613 -3.25
1.999696 -3.25
2.032753 -3.25
2.05946 -3.25
2.087492 -3.25
2.117989 -3.25
2.149974 -3.25
2.179933 -3.25
2.207639 -3.25
2.237937 -3.25
2.267184 -3.25
2.29339 -3.25
2.326723 -3.25
2.360057 -3.25
2.39339 -3.25
2.423306 -3.25
2.454448 -3.25
2.482644 -3.25
2.511013 -3.25
2.539781 -3.25
2.572455 -3.25
2.605788 -3.25
2.639122 -3.25
2.672455 -3.25
2.702173 -3.25
2.732401 -3.25
2.763181 -3.25
2.791751 -3.25
2.821 -3.25
2.854333 -3.25
2.887666 -3.25
2.91998 -3.25
2.952985 -3.25
2.986318 -3.25
3.019651 -3.25
3.04906 -3.25
3.079073 -3.25
3.110602 -3.25
3.139514 -3.25
3.167174 -3.25
3.196724 -3.25
3.230058 -3.25
3.259387 -3.25
3.29127 -3.25
3.320029 -3.25
3.34945 -3.25
3.378566 -3.25
3.407151 -3.25
3.437562 -3.25
3.470649 -3.25
3.503982 -3.25
3.530704 -3.25
3.559643 -3.25
3.589448 -3.25
3.620587 -3.25
3.650749 -3.25
3.681515 -3.25
3.711756 -3.25
3.739182 -3.25
3.765527 -3.25
3.795483 -3.25
3.828816 -3.25
3.854936 -3.25
3.88185 -3.25
3.910918 -3.25
3.938883 -3.25
3.967362 -3.25
3.994438 -3.25
4.027223 -3.25
4.05713 -3.25
4.090464 -3.25
4.117986 -3.25
4.15132 -3.25
4.183359 -3.25
4.216036 -3.25
4.245764 -3.25
4.275376 -3.25
4.305761 -3.25
4.334779 -3.25
4.364916 -3.25
4.395042 -3.25
4.428375 -3.25
4.459606 -3.25
4.491481 -3.25
4.523467 -3.25
4.5568 -3.25
4.587614 -3.25
4.618013 -3.25
4.651347 -3.25
4.68468 -3.25
4.718013 -3.25
4.747268 -3.25
4.779236 -3.25
4.808526 -3.25
4.83673 -3.25
4.862875 -3.25
4.890991 -3.05
4.921304 -3.05
4.95139 -2.8
4.984724 -2.8
5.01493 -2.4
5.043055 -1.7
5.07108 -1.7
5.099452 -0.85
5.130202 -0.85
5.158875 0.2
5.189426 1.3
5.222408 1.3
5.252648 1.95
5.282223 1.95
5.312247 2.4
5.338967 2.4
5.372301 2.4
5.401936 1.95
5.434993 1.3
5.466545 1.3
5.496791 0
5.525949 0
5.554523 -1.5
5.581231 -1.5
5.612254 -2.15
5.640578 -3.05
5.67094 -3.05
5.698109 -3.45
5.731442 -3.45
5.764775 -3.45
5.798109 -3.45
5.831442 -3.45
5.864775 -3.45
5.895422 -3.45
5.925756 -3.45
5.957911 -3.45
5.989594 -3.45
6.021495 -3.7
6.052812 -3.7
6.084953 -4.35
6.117009 -6.1
6.145759 -6.1
6.179092 -7.2
6.210613 -8.05
6.241478 -8.05
6.274812 -8.3
6.306537 -8.3
6.332808 -8.3
6.363069 -8.05
6.396402 -8.05
6.42898 -7.85
6.457305 -7.4
6.490639 -7.4
6.520091 -7.2
6.54863 -7.2
6.576078 -6.55
6.609412 -5.65
6.642045 -5.65
6.66876 -4.35
6.696431 -4.35
6.729764 -3.45
6.763097 -3.05
6.791337 -3.05
6.820662 -3.05
6.851868 -3.05
6.882964 -3.05
6.916297 -3.05
6.946593 -3.05
6.978992 -3.05
7.008473 -2.8
7.038392 -2.8
7.071725 -2.4
7.105058 -1.5
7.138391 -0.85
7.171725 -0.85
7.205058 -0.85
7.238391 -0.85
7.268715 -0.85
7.299276 -0.85
7.332188 -0.85
7.365521 -0.85
7.397457 -0.85
7.43079 -0.85
7.457869 -0.85
7.491202 -0.85
7.519953 -0.85
7.548609 -0.85
7.577962 -0.85
7.605987 -0.85
7.634464 -0.85
7.667798 -0.85
7.701131 -0.85
7.729234 -0.85
7.759962 -0.85
7.792958 -0.85
7.825102 -0.85
7.854126 -0.85
7.882163 -0.85
7.910021 -0.85
7.939148 -0.85
7.972482 -0.85
8.005816 -0.85
8.03384 -0.85
8.067174 -0.85
8.095279 -0.85
8.123472 -0.85
8.156805 -0.85
8.183392 -0.85
8.213823 -0.85
8.246871 -0.85
8.276152 -0.85
8.308981 -0.85
8.342314 -0.85
8.375067 -0.85
8.4084 -0.85
8.437185 -0.85
8.470519 -0.85
8.502196 -0.85
8.532785 -0.85
8.559612 -0.85
8.592946 -0.85
8.626279 -0.85
8.655622 -0.85
8.688955 -0.85
8.722288 -0.85
8.755622 -0.85
8.788955 -0.85
8.815714 -0.85
8.847373 -0.85
8.876696 -0.85
8.905157 -0.85
8.934184 -0.85
8.962507 -0.85
8.99584 -0.85
9.022555 -0.85
9.055889 -0.85
9.084979 -0.85
9.113915 -0.85
9.145473 -0.85
9.17314 -0.85
9.201664 -0.85
9.230149 -0.85
9.257915 -0.85
9.284545 -0.85
9.312188 -0.85
9.34231 -0.85
9.371985 -0.85
9.399848 -0.85
9.433182 -0.85
9.466515 -0.85
9.499848 -0.85
9.533181 -0.85
9.562924 -0.85
9.596258 -0.85
9.625671 -0.85
9.652287 -0.85
9.68562 -0.85
9.718954 -0.85
9.747942 -0.85
9.779934 -0.85
9.808926 -0.85
9.838355 -0.85
9.867611 -0.85
9.900944 -0.85
9.934278 -0.85
9.963731 -0.85
9.992238 -0.85
10.0207 -0.85
10.05051 -0.85
10.08005 -0.85
10.11021 -0.85
10.13848 -0.85
10.16821 -0.85
10.19811 -0.85
10.23144 -0.85
10.26446 -0.85
10.29413 -0.85
10.32746 -0.85
10.35569 -0.85
10.38839 -0.85
10.41779 -0.85
10.45078 -0.85
10.48385 -0.85
10.51246 -0.85
10.54545 -0.85
10.57485 -0.85
10.60532 -0.85
10.63366 -0.85
10.66382 -0.85
10.69314 -0.85
10.72208 -0.85
10.74988 -0.85
10.78321 -0.85
10.81655 -0.85
10.84621 -0.85
10.87544 -0.85
10.90741 -0.85
10.93742 -0.85
10.96764 -0.85
10.99711 -0.85
11.0271 -0.85
11.05705 -0.85
11.08784 -0.85
11.12076 -0.85
11.1541 -0.85
11.18743 -0.85
11.22076 -0.85
11.25144 -0.85
11.28361 -0.85
11.31346 -0.85
11.34236 -0.85
11.37119 -0.85
11.39971 -0.85
11.43304 -0.85
11.46637 -0.85
11.49971 -0.85
11.53304 -0.85
11.56378 -0.85
11.59385 -0.85
11.62298 -0.85
11.65095 -0.85
11.68136 -0.85
11.70995 -0.85
11.73749 -0.85
11.76742 -0.85
11.80075 -0.85
11.82891 -0.85
11.85518 -0.85
11.88576 -0.85
11.91543 -0.85
11.94522 -0.85
11.97766 -0.85
12.00662 -0.85
12.03801 -0.85
12.07134 -0.85
12.10162 -0.85
12.13495 -0.85
12.16829 -0.85
12.20079 -0.85
12.23137 -0.85
12.26201 -0.85
12.29419 -0.85
12.32245 -0.85
12.34896 -0.85
12.37818 -0.85
12.41025 -0.85
12.44331 -0.85
12.47158 -0.85
12.50041 -0.85
12.53081 -0.85
12.56186 -0.85
12.59201 -0.85
12.62123 -0.85
12.65456 -0.85
12.68284 -0.85
12.71617 -0.85
12.74951 -0.85
12.78059 -0.85
12.81335 -0.85
12.84178 -0.85
12.87511 -0.85
12.9075 -0.85
12.93716 -0.85
12.96476 -0.85
12.9948 -0.85
13.02814 -0.85
13.06147 -0.85
13.08925 -0.85
13.12259 -0.85
13.15152 -0.85
13.18177 -0.85
13.21013 -0.85
13.24346 -0.85
13.27545 -0.85
13.30736 -0.85
13.33996 -0.85
13.37329 -0.85
13.40287 -0.85
13.4362 -0.85
13.46267 -0.85
13.49417 -0.85
13.5258 -0.85
13.55575 -0.85
13.58876 -0.85
13.61881 -0.85
13.65214 -0.85
13.68257 -0.85
13.71007 -0.85
13.7434 -0.85
13.77412 -0.85
13.80287 -0.85
13.83134 -0.85
13.85979 -0.85
13.89312 -0.85
13.91984 -0.85
13.94746 -0.85
13.97611 -0.85
14.00945 -0.85
14.04066 -0.85
14.07381 -0.85
14.10715 -0.85
14.13803 -0.85
14.16825 -0.85
14.19471 -0.85
14.22649 -0.85
14.25666 -0.85
14.29 -0.85
14.31692 -0.85
14.34643 -0.85
14.37613 -0.85
14.40456 -0.85
14.43383 -0.85
14.4614 -0.85
14.4905 -0.85
14.51965 -0.85
14.54544 -0.85
14.57581 -0.85
14.60914 -0.85
14.63931 -0.85
14.66665 -0.85
14.69661 -0.85
14.72727 -0.85
14.76012 -0.85
14.79093 -0.85
14.8214 -0.85
14.84986 -0.85
14.8783 -0.85
14.90967 -0.85
14.93819 -0.85
14.96858 -0.85
14.99619 -0.85
15.02424 -0.85
15.05394 -0.85
15.08728 -0.85
15.11888 -0.85
15.14611 -0.85
15.17741 -0.85
15.21035 -0.85
15.24221 -0.85
15.27042 -0.85
15.30376 -0.85
15.33709 -0.85
15.36482 -0.85
15.39283 -0.85
15.42616 -0.85
15.4561 -0.85
15.48943 -0.85
15.51656 -0.85
15.54989 -0.85
15.58323 -0.85
15.60985 -0.85
15.63791 -0.85
15.6692 -0.85
15.70147 -0.85
15.73088 -0.85
15.75998 -0.85
15.78908 -0.85
15.82108 -0.85
15.85333 -0.85
15.88226 -0.85
15.91191 -0.85
15.94461 -0.85
15.97794 -0.85
16.00424 -0.85
16.03343 -0.85
16.06116 -0.85
16.08851 -0.85
16.12038 -0.85
16.15078 -0.85
16.18411 -0.85
16.21581 -0.85
16.24248 -0.85
16.27112 -0.85
16.29887 -0.85
16.32923 -0.85
16.36256 -0.85
16.3925 -0.85
16.4257 -0.85
16.45903 -0.85
16.48976 -0.85
16.51778 -0.85
16.54682 -0.85
16.58015 -0.85
16.60576 -0.85
16.63751 -0.85
16.66625 -0.85
16.69756 -0.85
16.72778 -0.85
16.75857 -0.85
16.79038 -0.85
16.82277 -0.85
16.8508 -0.85
16.88103 -0.85
16.91436 -0.85
16.94769 -0.85
16.97497 -0.85
17.00489 -0.85
17.03404 -0.85
17.0617 -0.85
17.09036 -0.85
17.1237 -0.85
17.1527 -0.85
17.18126 -0.85
17.20941 -0.85
17.23813 -0.85
17.2713 -0.85
17.30021 -0.85
17.33235 -0.85
17.36473 -0.85
17.39553 -0.85
17.42643 -0.85
17.45642 -0.85
17.48976 -0.85
17.52103 -0.85
17.54958 -0.85
17.57566 -0.85
17.60606 -0.85
17.63867 -0.85
17.66815 -0.85
17.69745 -0.85
17.73078 -0.85
17.76412 -0.85
17.79425 -0.85
17.82337 -0.85
17.85522 -0.85
17.88855 -0.85
17.92189 -0.85
17.95015 -0.85
17.98015 -0.85
18.01192 -0.85
18.04435 -0.85
18.07243 -0.85
18.10094 -0.85
18.13141 -0.85
18.15858 -0.85
18.18963 -0.85
18.22181 -0.85
18.25514 -0.85
18.28291 -0.85
18.31624 -0.85
18.34596 -0.85
18.37821 -0.85
18.40842 -0.85
18.43879 -0.85
18.47078 -0.85
18.50412 -0.85
18.53745 -0.85
18.57078 -0.85
18.60412 -0.85
18.63745 -0.85
18.67078 -0.85
18.7002 -0.85
18.73061 -0.85
18.76394 -0.85
18.79727 -0.85
18.82947 -0.85
18.8628 -0.85
18.89614 -0.85
18.92882 -0.85
18.96143 -0.85
18.99118 -0.85
19.02265 -0.85
19.05394 -0.85
19.08376 -0.85
19.11586 -0.85
19.14669 -0.85
19.18002 -0.85
19.21 -0.85
19.24169 -0.85
19.2719 -0.85
19.30182 -0.85
19.33066 -0.85
19.364 -0.85
19.39344 -0.85
19.42559 -0.85
19.45584 -0.85
19.48844 -0.85
19.52172 -0.85
19.55351 -0.85
19.58685 -0.85
19.617 -0.85
19.64758 -0.85
19.67458 -0.85
19.7035 -0.85
19.73683 -0.85
19.76706 -0.85
19.79583 -0.85
19.82434 -0.85
19.85489 -0.85
19.88474 -0.85
19.91685 -0.85
19.94699 -0.85
19.98032 -0.85
20.01111 -0.85
20.04244 -0.85
20.07376 -0.85
20.1063 -0.85
20.13468 -0.85
20.16169 -0.85
20.19023 -0.85
20.22356 -0.85
20.25292 -0.85
20.28559 -0.85
20.3161 -0.85
20.34757 -0.85
20.38028 -0.85
20.41057 -0.85
20.43868 -0.85
20.47165 -0.85
20.50423 -0.85
20.53756 -0.85
20.5687 -0.85
20.60203 -0.85
20.63247 -0.85
20.66256 -0.85
20.69232 -0.85
20.72565 -0.85
20.75899 -0.85
20.78827 -0.85
20.81742 -0.85
20.85075 -0.85
20.88153 -0.85
20.91306 -0.85
20.94419 -0.85
20.97595 -0.85
21.00724 -0.4
21.03941 0
21.06989 0
21.1023 0.4
21.13341 0.4
21.16356 0.4
21.19141 0.4
21.22475 0.4
21.25808 0.4
21.29098 0.4
21.31985 0.4
21.34877 0.4
21.38211 0.4
21.41016 0.4
21.43705 0.4
21.47039 0.4
21.50372 0.4
21.53211 0.4
21.55939 0.4
21.5889 0.4
21.62106 0.4
21.64979 0.4
21.67787 0.65
21.70689 0.65
21.73514 1.05
21.76666 1.5
21.79379 1.5
21.82633 1.95
21.85568 1.95
21.88901 1.95
21.91787 1.95
21.9494 1.95
21.98273 1.95
22.01186 1.95
22.0452 1.95
22.07754 1.95
22.11088 1.95
22.14421 1.95
22.17429 1.95
22.20763 2.4
22.24096 2.4
22.27251 3.05
22.30242 3.7
22.33194 3.7
22.36527 4.15
22.39538 4.15
22.42871 4.15
22.46205 4.15
22.4918 4.15
22.52046 4.15
22.54958 4.15
22.58291 3.9
22.61582 3.9
22.64455 3.45
22.67494 3.45
22.70628 2.8
22.73961 2.6
22.76806 2.6
22.79512 2.6
22.82426 2.6
22.85668 2.6
22.89001 2.6
22.9173 2.6
22.94993 2.6
22.98012 2.6
23.00952 2.6
23.03781 2.6
23.06755 2.6
23.10081 2.6
23.12784 2.6
23.15589 2.6
23.18923 2.6
23.22128 2.6
23.25026 2.6
23.28116 2.6
23.31173 2.6
23.34155 2.6
23.37489 2.6
23.40176 2.6
23.43509 2.6
23.46843 2.6
23.49685 2.6
23.52961 2.6
23.55956 2.6
23.59238 2.8
23.61967 3.05
23.64562 3.05
23.675 3.05
23.70462 3.05
23.73256 3.25
23.76062 3.25
23.79349 3.25
23.8222 3.25
23.85344 3.25
23.88091 3.25
23.91015 3.25
23.93885 3.25
23.97113 3.25
24.00279 3.25
24.03139 3.25
24.06472 3.25
24.09644 3.25
24.12447 3.25
24.15414 3.25
24.18598 3.25
24.21931 3.25
24.25264 3.25
24.2847 3.25
24.31409 3.25
24.34478 3.25
24.37375 3.25
24.40463 3.25
24.43796 3.25
24.4713 3.25
24.50101 3.25
24.53001 3.25
24.56334 3.25
24.59414 3.25
24.62337 3.25
24.65635 3.25
24.68969 3.25
24.71663 3.25
24.74449 3.25
24.7751 3.25
24.80835 3.25
24.8371 3.25
24.86951 3.25
24.902 3.25
24.93049 3.25
24.96382 3.7
24.99361 3.7
25.0263 4.8
25.05662 6.1
25.08544 6.1
25.11396 7.4
25.14672 7.4
25.18005 9.35
25.21178 10.7
25.24142 10.7
25.27265 11.35
25.30284 11.35
25.33308 12.2
25.36184 12.65
25.39438 12.65
25.42239 13.1
25.45572 13.95
25.48205 13.95
25.51422 14.6
25.54756 15.5
25.57864 15.5
25.60638 16.35
25.6376 16.35
25.67093 17.25
25.69979 18.1
25.72777 18.1
25.7605 19
25.79383 19.85
25.82646 19.85
25.85713 20.75
25.89046 22.05
25.9238 22.05
25.95236 23.35
25.98199 23.35
26.01229 25.3
26.04267 27.5
26.07119 27.5
26.09971 29.25
26.13135 29.25
26.16468 31.2
26.19575 33.2
26.22456 33.2
26.25303 34.95
26.284 36.65
26.31433 36.65
26.34147 38.2
26.37136 38.2
26.40283 39.95
26.43088 39.95
26.46305 41.7
26.49129 43.65
26.52234 43.65
26.55194 45.4
26.58039 45.4
26.61025 47.8
26.64122 50.65
26.66958 50.65
26.70004 52.85
26.73267 52.85
26.766 55.9
26.79895 58.5
26.83118 60.5
26.86181 60.5
26.89514 62.45
26.92847 64.4
26.96181 64.4
26.99222 66.15
27.02269 66.15
27.05257 67.5
27.08094 69.65
27.11427 69.65
27.14454 71.65
27.17355 71.65
27.20061 73.8
27.23156 76.2
27.26151 76.2
27.29484 79.5
27.32309 79.5
27.3523 82.55
27.38564 85.4
27.41759 85.4
27.44775 87.8
27.48108 90.65
27.51235 90.65
27.54568 93.45
27.57538 95.85
27.60519 95.85
27.63853 97.85
27.66749 97.85
27.69497 100.9
27.72699 102
27.75644 102
27.78737 107.25
27.81475 107.25
27.84704 112.25
27.87971 117.95
27.91249 117.95
27.94582 123.6
27.97837 129.1
28.01171 129.1
28.04334 133.9
28.07125 137.15
28.10143 137.15
28.1313 141.3
28.16463 148.3
28.19312 148.3
28.22432 155.95
28.25765 162.3
28.28653 162.3
28.31666 169.7
28.34856 169.7
28.38124 176.25
28.41457 182.8
28.44546 182.8
28.47445 187.85
28.50464 187.85
28.53797 193.1
28.56588 197.45
28.59684 197.45
28.63017 200.95
28.6635 205.1
28.69436 205.1
28.72363 208.6
28.75332 212.75
28.78322 212.75
28.8131 216.25
28.84269 216.25
28.87603 218.4
28.90892 218.4
28.9406 218.4
28.97393 218.4
29.00727 218.4
29.03933 218.4
29.07261 218.4
29.10468 218.4
29.13506 218.4
29.16416 218.4
29.19316 218.4
29.22649 218.4
29.25654 218.4
29.28563 218.4
29.31564 218.4
29.34898 218.4
29.37866 218.4
29.412 218.4
29.44105 218.4
29.47113 218.4
29.50118 218.4
29.53068 218.4
29.55988 218.4
29.59001 218.4
29.62334 218.4
29.65118 218.4
29.68215 218.4
29.71374 218.4
29.74406 218.4
29.77729 218.4
29.80549 218.4
29.83882 218.4
29.86711 218.4
29.89908 218.4
29.92999 218.4
29.96037 218.4
29.98971 218.4
30.02016 218.4
30.05349 218.4
30.08435 218.4
30.11379 218.4
30.1426 218.4
30.17594 218.4
30.20728 218.4
30.23662 218.2
30.26863 218.2
30.29889 218.2
30.33222 218.2
30.3611 217.75
30.394 217.75
30.42734 215.15
30.45972 211.85
30.49306 211.85
30.5212 207.95
30.54915 207.95
30.58049 204.45
30.61078 201.8
30.64042 201.8
30.67255 198.3
30.70399 198.3
30.73441 194.4
30.76197 190.7
30.79013 190.7
30.82069 185.65
30.85402 185.65
30.88436 177.15
30.91177 172.1
30.9451 172.1
30.97828 165.35
31.0079 158.35
31.03713 158.35
31.06639 153.3
31.09744 153.3
31.12535 147.45
31.1554 142.6
31.18722 142.6
31.219 136.5
31.25088 136.5
31.27784 132.15
31.31117 130.15
31.3445 130.15
31.3742 128.2
31.40659 125.15
31.43815 125.15
31.46819 120.1
31.49657 120.1
31.52649 117.7
31.55687 116.65
31.58648 116.65
31.61468 116.65
31.64357 116.65
31.67279 116.65
31.70549 116.65
31.73321 116.65
31.76495 116.85
31.79629 116.85
31.82811 118.6
31.86016 121
31.89131 121
31.92005 124.5
31.94867 124.5
31.97747 127.75
32.00725 129.75
32.03613 129.75
32.06571 132.15
32.09717 132.15
32.12456 134.1
32.15598 135.4
32.18561 135.4
32.21383 136.5
32.24716 136.5
32.27671 136.7
32.30596 136.3
32.33463 136.3
32.36543 135.65
32.39604 135.65
32.426 135.2
32.45641 135
32.48363 135
32.51261 136.3
32.54594 136.3
32.57476 140.45
32.60433 146.55
32.63766 146.55
32.671 153.1
32.70011 159
32.7292 159
32.76012 166.65
32.79026 166.65
32.81922 173.2
32.84711 180.65
32.87718 180.65
32.90661 186.55
32.93663 186.55
32.96597 193.5
32.9962 200.05
33.02928 200.05
33.05757 206.65
33.08538 206.65
33.11453 211.65
33.14376 218.4
33.17208 218.4
33.20102 218.4
33.2308 218.4
33.25953 218.4
33.29206 218.4
33.32423 218.4
33.35343 218.4
33.38317 218.4
33.41403 218.4
33.44492 218.4
33.47331 218.4
33.50665 218.4
33.53451 218.4
33.56384 218.4
33.59717 218.4
33.62841 218.4
33.66174 218.4
33.69026 218.4
33.71953 218.4
33.7527 218.4
33.7811 218.4
33.80909 218.4
33.84242 218.4
33.87086 218.4
33.90161 218.4
33.93139 218.4
33.96235 218.4
33.99083 218.4
34.01964 218.4
34.04847 218.4
34.07732 218.4
34.10735 218.4
34.14068 218.4
34.16786 218.4
34.19825 218.4
34.23109 218.4
34.26164 218.4
34.29029 218.4
34.32356 218.4
34.35385 218.4
34.38215 218.4
34.41422 218.4
34.44315 218.4
34.47529 218.4
34.5022 218.4
34.53365 218.4
34.56359 218.4
34.59478 218.4
34.62505 218.4
34.65285 218.4
34.68211 218.4
34.71445 218.4
34.742 218.4
34.77534 218.4
34.80398 218.4
34.83403 218.4
34.86415 218.4
34.89183 218.4
34.9226 218.4
34.95194 218.4
34.98208 218.4
35.01222 218.4
35.04482 218.4
35.07569 218.4
35.10902 218.4
35.13664 218.4
35.16997 218.4
35.20275 218.4
35.23187 218.4
35.26276 218.4
35.2925 218.4
35.32199 218.4
35.35115 218.4
35.37877 218.4
35.4121 218.4
35.44072 218.4
35.46895 218.4
35.49652 218.4
35.52985 218.4
35.55992 218.4
35.59085 218.4
35.61848 218.4
35.64913 218.4
35.68246 218.4
35.71399 218.4
35.74184 218.4
35.77238 218.4
35.80241 218.4
35.83118 218.4
35.86451 218.4
35.89301 218.4
35.92634 218.4
35.95473 218.4
35.98225 218.4
36.01257 218.4
36.0459 218.4
36.07537 218.4
36.10397 218.4
36.13592 218.4
36.16786 218.4
36.19698 218.4
36.23031 218.4
36.26365 218.4
36.29382 218.4
36.32474 218.4
36.35294 218.4
36.38266 218.4
36.41528 218.4
36.44861 218.4
36.47726 218.4
36.50726 218.4
36.5406 218.4
36.56886 218.4
36.59917 218.4
36.62934 218.4
36.66268 218.4
36.69042 218.4
36.71798 218.4
36.74675 218.4
36.77636 218.4
36.80845 218.4
36.83636 218.4
36.86866 218.4
36.89705 218.4
36.92709 218.4
36.95548 218.4
36.98629 218.4
37.01962 218.4
37.05295 218.4
37.08628 218.4
37.11522 218.4
37.14484 218.4
37.17286 218.4
37.2008 218.4
37.23037 218.4
37.26083 218.4
37.29295 218.4
37.32274 218.4
37.35334 218.4
37.38667 218.4
37.41497 218.4
37.44228 218.4
37.47561 218.4
37.50761 218.4
37.53509 218.4
37.5658 218.4
37.5949 218.4
37.62383 218.4
37.65211 218.4
37.67978 218.4
37.70875 218.4
37.74073 218.4
37.77406 218.4
37.80243 218.4
37.83576 218.4
37.86527 218.4
37.89358 218.4
37.92347 218.4
37.95351 218.4
37.98685 218.4
38.01757 218.4
38.04499 218.4
38.077 218.4
38.10613 218.4
38.13939 218.4
38.16726 218.4
38.2006 218.4
38.23393 218.4
38.26727 218.4
38.29458 218.2
38.32791 218.2
38.36045 218.2
38.39148 218.2
38.42057 218.2
38.44991 218.2
38.48027 218.2
38.51023 218.4
38.53801 218.2
38.57108 218.2
38.60251 218.2
38.63051 218.2
38.6572 218.2
38.69054 218.2
38.71984 218.2
38.75317 218.2
38.77987 218.2
38.8098 218.2
38.84204 218.2
38.87537 218.2
38.90719 217.1
38.94052 214.95
38.97056 214.95
39.00121 212.3
39.02854 210.1
39.05778 210.1
39.08631 208.6
39.11489 208.6
39.14271 208.6
39.17566 205.3
39.20845 205.3
39.24023 203.15
39.27356 201.8
39.30611 201.8
39.33529 201.4
39.36581 201.4
39.39625 201.4
39.42714 201.4
39.45879 201.4
39.4871 201.4
39.51384 201.4
39.54532 201.4
39.57393 201.4
39.60726 201.4
39.63523 201.4
39.66486 201.4
39.69374 201.4
39.72621 201.6
39.75351 201.6
39.78324 201.6
39.81658 201.8
39.84519 201.8
39.87769 202.25
39.90808 202.25
39.93777 202.25
39.96932 202.5
39.99961 202.5
40.03294 202.5
40.06227 202.5
40.09053 202.5
40.11769 202.5
40.15103 202.5
40.18199 202.5
40.20956 202.5
40.23678 202.5
40.27011 202.25
40.30021 202.25
40.32935 202.25
40.35885 201.8
40.39218 201.8
40.42186 200.05
40.45418 197.65
40.48296 197.65
40.51385 193.95
40.5451 193.95
40.57582 189.8
40.60654 184.8
40.63719 184.8
40.66689 180.2
40.70022 175.15
40.7271 175.15
40.75994 171.25
40.78975 171.25
40.82127 166.65
40.85039 162.7
40.88194 162.7
40.9116 160.75
40.94408 160.75
40.9731 157.9
41.00644 154
41.03555 154
41.06589 148.95
41.09694 141.1
41.12578 141.1
41.15551 133.65
41.18694 133.65
41.21579 127.55
41.24738 119.9
41.27736 119.9
41.30566 112.5
41.33299 112.5
41.36633 105.9
41.39671 97.2
41.42492 97.2
41.45192 89.55
41.48101 89.55
41.51071 77.75
41.53939 77.75
41.56926 68.35
41.5991 54.35
41.63243 54.35
41.66317 40.8
41.69097 23.15
41.7243 23.15
41.75644 8.3
41.78977 -8.5
41.8191 -8.5
41.85243 -16.15
41.88177 -16.15
41.91488 -19.65
41.94365 -23.35
41.97698 -23.35
42.01031 -31.85
42.03978 -39.95
42.07302 -39.95
42.10427 -46.05
42.13425 -54.8
42.16748 -54.8
42.19949 -64.2
42.23009 -75.55
42.25979 -75.55
42.29081 -86.25
42.31917 -86.25
42.34829 -99.35
42.37912 -99.35
42.40921 -110.75
42.44034 -117.95
42.47332 -117.95
42.50587 -122.95
42.5344 -133
42.56667 -133
42.6 -144.8
42.6316 -156.6
42.66207 -156.6
42.6896 -167.75
42.71836 -167.75
42.74794 -176.05
42.77651 -176.05
42.80428 -186.1
42.83525 -193.75
42.86492 -193.75
42.89458 -202.7
42.92792 -211.45
42.95804 -211.45
42.98645 -218.4
43.01525 -218.4
43.04435 -218.4
43.07719 -218.4
43.11053 -218.4
43.14027 -218.4
43.1736 -218.4
43.20693 -218.4
43.23629 -218.4
43.26963 -218.4
43.30043 -218.4
43.32969 -218.4
43.36267 -218.4
43.39342 -218.4
43.42082 -218.4
43.4516 -218.4
43.48449 -218.4
43.51365 -218.4
43.54168 -218.4
43.57501 -218.4
43.60553 -218.4
43.6348 -218.4
43.66177 -218.4
43.69139 -218.4
43.7211 -218.4
43.75444 -218.4
43.78289 -218.4
43.81165 -218.4
43.84436 -218.4
43.87302 -218.4
43.90009 -218.4
43.93043 -218.4
43.96205 -218.4
43.99 -218.4
44.0182 -218.4
44.05154 -218.4
44.08487 -218.4
44.11539 -218.4
44.14423 -218.4
44.17421 -218.4
44.20754 -218.4
44.236 -218.4
44.26493 -218.4
44.2938 -218.4
44.32217 -218.4
44.3555 -218.4
44.38884 -218.4
44.42217 -218.4
44.45169 -218.4
44.48502 -218.4
44.51436 -218.4
44.54508 -218.4
44.57768 -218.4
44.60513 -218.4
44.63456 -218.4
44.66789 -218.4
44.69759 -218.4
44.73093 -218.4
44.76115 -218.4
44.78934 -218.4
44.81907 -218.4
44.84773 -218.4
44.87707 -218.4
44.90957 -218.4
44.93903 -218.4
44.97073 -218.4
44.9983 -218.4
45.0287 -218.4
45.05861 -218.4
45.09024 -218.4
45.11694 -218.4
45.14735 -218.4
45.18017 -218.4
45.20953 -218.4
45.24007 -218.4
45.27196 -218.4
45.30346 -218.4
45.3368 -218.4
45.37013 -218.4
45.40272 -218.4
45.43587 -218.4
45.46452 -218.4
45.49201 -218.4
45.52276 -218.4
45.55204 -218.4
45.58006 -218.4
45.60719 -218.4
45.64052 -218.4
45.67015 -218.4
45.69859 -218.4
45.72606 -218.4
45.75833 -218.4
45.78705 -218.4
45.81578 -218.4
45.84406 -218.4
45.8774 -218.4
45.9071 -218.4
45.93863 -218.4
45.96633 -218.4
45.99534 -218.4
46.02667 -218.4
46.06001 -218.4
46.09059 -218.4
46.12393 -218.4
46.15266 -218.4
46.1803 -218.4
46.21229 -218.4
46.24562 -218.4
46.27623 -218.4
46.30763 -218.4
46.33788 -218.4
46.3672 -218.4
46.39891 -218.4
46.43224 -218.4
46.4599 -218.4
46.49324 -218.4
46.52439 -218.4
46.556 -218.4
46.58336 -218.4
46.61275 -218.4
46.64298 -218.4
46.67143 -218.4
46.69881 -218.4
46.72863 -218.4
46.75809 -218.4
46.78592 -218.4
46.81412 -218.4
46.84745 -218.4
46.88078 -218.4
46.91255 -218.4
46.9435 -218.4
46.97684 -218.4
47.01017 -218.4
47.03978 -218.4
47.06872 -218.4
47.09814 -218.4
47.12643 -218.4
47.15623 -218.4
47.18684 -218.4
47.21545 -218.4
47.24655 -218.4
47.27988 -218.4
47.31321 -218.4
47.34132 -218.4
47.36963 -218.4
47.40171 -218.4
47.43185 -218.4
47.46518 -218.4
47.49487 -218.4
47.52734 -218.4
47.55814 -218.4
47.59061 -218.4
47.62302 -218.4
47.65393 -218.4
47.68111 -218.4
47.71445 -218.4
47.74377 -218.4
47.77125 -218.4
47.79814 -218.4
47.82891 -218.4
47.85958 -218.4
47.88949 -218.4
47.91868 -218.4
47.94915 -218.4
47.97904 -218.4
48.00721 -218.4
48.03462 -218.4
48.0635 -218.4
48.09683 -218.4
48.12484 -218.4
48.15246 -218.4
48.18238 -218.4
48.21265 -218.4
48.24063 -218.4
48.26773 -218.4
48.29775 -218.4
48.32688 -218.4
48.35492 -218.4
48.38247 -218.4
48.41523 -218.4
48.44493 -218.4
48.47468 -218.4
48.50801 -218.4
48.53821 -218.4
48.57059 -218.4
48.6006 -218.4
48.62825 -218.4
48.66159 -218.4
48.69098 -218.4
48.72303 -218.4
48.75409 -218.4
48.78743 -218.4
48.81705 -218.4
48.8446 -218.4
48.87334 -218.4
48.90351 -218.4
48.9331 -218.4
48.96173 -218.4
48.99385 -218.4
49.02718 -218.4
49.05831 -218.4
49.09161 -218.4
49.12069 -218.4
49.15099 -218.4
49.18105 -218.4
49.21439 -218.4
49.24396 -218.4
49.27232 -218.4
49.30268 -218.4
49.33345 -218.4
49.36013 -218.4
49.38979 -218.4
49.42195 -218.4
49.4523 -218.4
49.48563 -218.4
49.51897 -218.4
49.55167 -218.4
49.58284 -218.4
49.61023 -218.4
49.63953 -218.4
49.66915 -218.4
49.69896 -218.4
49.72678 -218.4
49.75769 -218.4
49.78925 -218.4
49.82157 -218.4
49.85027 -218.4
49.8836 -218.4
49.91319 -218.4
49.94456 -218.4
49.97388 -218.4
50.00557 -218.4
50.0384 -218.4
50.06872 -218.4
50.09719 -218.4
50.12711 -218.4
50.16045 -218.4
50.19378 -218.4
50.22187 -218.4
50.25254 -218.4
50.28588 -218.4
50.3185 -218.4
50.34908 -218.4
50.38098 -218.4
50.41072 -218.4
50.43914 -218.4
50.46613 -218.4
50.49646 -218.4
50.52979 -218.4
50.56235 -218.4
50.58963 -218.4
50.62297 -218.4
50.6563 -218.4
50.68963 -218.4
50.71918 -218.4
50.74944 -218.4
50.7807 -218.4
50.80937 -218.4
50.83702 -218.4
50.86758 -218.4
50.89633 -218.4
50.92966 -218.4
50.95645 -218.4
50.98625 -218.4
51.01499 -218.4
51.04441 -218.4
51.07275 -218.4
51.10364 -218.4
51.1345 -218.4
51.16257 -218.4
51.19431 -218.4
51.2238 -218.4
51.25528 -218.4
51.28423 -218.4
51.31253 -218.4
51.34499 -218.4
51.37674 -218.4
51.40953 -218.4
51.43693 -218.4
51.47026 -218.4
51.49944 -218.4
51.52927 -218.4
51.55713 -218.4
51.5868 -218.4
51.61653 -218.4
51.64486 -218.4
51.67582 -218.4
51.70916 -218.4
51.73934 -218.4
51.76784 -218.4
51.79801 -218.4
51.8288 -218.4
51.86214 -218.4
51.89547 -218.4
51.92405 -218.4
51.95615 -218.4
51.98948 -218.4
52.01886 -218.4
52.04688 -218.4
52.08022 -218.4
52.10893 -218.4
52.13862 -218.4
52.1716 -218.4
52.2017 -218.4
52.23393 -218.4
52.26305 -218.4
52.29178 -218.4
52.32166 -218.4
52.35093 -218.4
52.3816 -218.4
52.4089 -218.4
52.44223 -218.4
52.47429 -218.4
52.50541 -218.4
52.53299 -218.4
52.56632 -218.4
52.59612 -218.4
52.62492 -218.4
52.65236 -218.4
52.68211 -218.4
52.71052 -218.4
52.74082 -218.4
52.76922 -218.4
52.80255 -218.4
52.83069 -218.4
52.85991 -218.4
52.88759 -218.4
52.91775 -218.4
52.95021 -218.4
52.98355 -218.4
53.01464 -218.4
53.04505 -218.4
53.07635 -218.4
53.10969 -218.4
53.14056 -218.4
53.17142 -218.4
53.2007 -218.4
53.23079 -218.4
53.25898 -218.4
53.28921 -218.4
53.32002 -218.4
53.34927 -218.4
53.37919 -218.4
53.40791 -218.4
53.44048 -218.4
53.47075 -218.4
53.49831 -218.4
53.53165 -218.4
53.56089 -218.4
53.59422 -218.4
53.62156 -218.4
53.65311 -218.4
53.68174 -218.4
53.71301 -218.4
53.7427 -218.4
53.77344 -218.4
53.80349 -218.4
53.83331 -218.4
53.86308 -218.4
53.89641 -218.4
53.9267 -218.4
53.96003 -218.4
53.98983 -218.4
54.01916 -218.4
54.04819 -218.4
54.07678 -218.4
54.10734 -218.4
54.14067 -218.4
54.17115 -218.4
54.20144 -218.4
54.23275 -218.4
54.26162 -218.4
54.29175 -218.4
54.32143 -218.4
54.35476 -218.4
54.3881 -218.4
54.42115 -218.4
54.45338 -218.4
54.48222 -218.4
54.51556 -218.4
54.54667 -218.4
54.57554 -218.4
54.60371 -218.4
54.63247 -218.4
54.66438 -218.4
54.69402 -218.4
54.72194 -218.4
54.75528 -218.4
54.78861 -218.4
54.81725 -218.4
54.84605 -218.4
54.87706 -218.4
54.91039 -218.4
54.9431 -218.4
54.97175 -218.4
55.00217 -218.4
55.0355 -218.4
55.06777 -218.4
55.09953 -218.4
55.13174 -218.4
55.16042 -218.4
55.18884 -218.4
55.21688 -218.4
55.2464 -218.4
55.27626 -218.4
55.30759 -218.4
55.33462 -218.4
55.36543 -218.4
55.39798 -218.4
55.42647 -218.4
55.45615 -218.4
55.48589 -218.4
55.51466 -218.4
55.54252 -218.4
55.57164 -218.4
55.60089 -218.4
55.62933 -218.4
55.6581 -218.4
55.6889 -218.4
55.72223 -218.4
55.75453 -218.4
55.78334 -218.4
55.81663 -218.4
55.84976 -218.4
55.87965 -218.4
55.9101 -218.4
55.94191 -218.4
55.9707 -218.4
56.00033 -218.4
56.03263 -218.4
56.05986 -218.4
56.09182 -218.4
56.12108 -218.4
56.1496 -218.4
56.17797 -218.4
56.21031 -218.4
56.24013 -218.4
56.26883 -218.4
56.29681 -218.4
56.33014 -218.4
56.36016 -218.4
56.39349 -218.4
56.42115 -218.4
56.45118 -218.4
56.48042 -218.4
56.51072 -218.4
56.53938 -218.4
56.57025 -218.4
56.60313 -218.4
56.63315 -218.4
56.66093 -218.4
56.69119 -218.4
56.72453 -218.4
56.75548 -218.4
56.78735 -218.4
56.81787 -218.4
56.84716 -218.4
56.87619 -218.4
56.90364 -217.55
56.93431 -217.55
56.96349 -213.2
56.99174 -213.2
57.02161 -200.05
57.0529 -185.45
57.08624 -185.45
57.1191 -171.65
57.15181 -162.7
57.18272 -162.7
57.21204 -157.7
57.24075 -157.7
57.26996 -157.9
57.3033 -159.2
57.33506 -159.2
57.36541 -163.15
57.39318 -163.15
57.42652 -168.6
57.45568 -174.95
57.48423 -174.95
57.51329 -180.4
57.54278 -186.3
57.57104 -186.3
57.59915 -191.55
57.62744 -191.55
57.66077 -195.25
57.68951 -195.25
57.72283 -200.05
57.75242 -204.9
57.78131 -204.9
57.81463 -207.5
57.84244 -209.9
57.87 -209.9
57.89982 -210.8
57.93315 -210.8
57.96459 -210.8
57.99366 -210.8
58.02572 -210.8
58.0552 -210.8
58.08522 -210.8
58.11196 -210.8
58.1439 -210.8
58.17723 -210.8
58.20529 -210.35
58.23243 -210.35
58.26566 -209.25
58.299 -206.4
58.32804 -206.4
58.35835 -202.9
58.3881 -200.5
58.41739 -200.5
58.44833 -198.55
58.47579 -198.55
58.50912 -197.65
58.54224 -197
58.57207 -197
58.60378 -197
58.63252 -197
58.66372 -197
58.69294 -196.8
58.72627 -196.8
58.75872 -196.6
58.79205 -196.15
58.82539 -196.15
58.85607 -195.5
58.8894 -194.6
58.91897 -194.6
58.95177 -194.15
58.98511 -194.15
59.01445 -194.15
59.04532 -194.15
59.07287 -194.15
59.10129 -194.15
59.13118 -194.15
59.16191 -194.15
59.19524 -194.15
59.22208 -194.15
59.25463 -194.15
59.28335 -194.15
59.31178 -194.15
59.33979 -194.15
59.36858 -194.15
59.39728 -194.15
59.42544 -194.15
59.45284 -194.15
59.48493 -194.15
59.51826 -194.15
59.54942 -194.15
59.58275 -194.15
59.61166 -194.15
59.645 -194.15
59.67307 -194.15
59.70173 -194.15
59.73335 -194.15
59.76381 -194.15
59.79187 -194.15
59.81898 -194.15
59.84877 -194.15
59.88076 -194.15
59.91152 -194.15
59.94124 -194.15
59.97198 -194.15
60.00306 -194.15
60.0358 -194.15
60.06232 -194.15
60.09134 -194.15
60.12468 -194.15
60.15311 -194.15
60.18166 -194.15
60.21017 -194.15
60.24141 -194.4
60.26892 -194.4
60.29814 -195.05
60.32822 -196.15
60.36155 -196.15
60.39284 -197.25
60.42054 -197.9
60.44872 -197.9
60.47976 -198.3
60.51193 -198.3
60.54526 -198.3
60.57364 -198.3
60.60271 -198.3
60.63181 -198.3
60.65955 -198.3
60.68888 -198.3
60.71862 -198.3
60.74659 -198.3
60.77491 -198.3
60.80824 -198.3
60.83679 -198.3
60.86524 -198.3
60.89372 -198.3
60.92506 -198.3
60.95461 -198.3
60.98621 -198.3
61.01728 -198.3
61.04922 -198.3
61.08256 -198.3
61.11589 -198.3
61.14355 -198.3
61.17282 -198.3
61.20143 -198.3
61.23476 -198.3
61.26233 -198.3
61.29507 -198.3
61.32623 -198.3
61.35732 -198.3
61.38412 -198.3
61.41746 -198.3
61.44642 -198.3
61.47533 -198.3
61.50866 -198.3
61.53699 -198.3
61.56618 -198.3
61.59951 -198.3
61.62667 -198.1
61.66001 -196.8
61.69334 -196.8
61.7227 -193.95
61.75603 -187.2
61.78532 -187.2
61.8182 -179.1
61.84839 -179.1
61.88002 -167.3
61.91187 -155.75
61.9452 -155.75
61.97445 -145.9
62.00293 -139.55
62.03094 -139.55
62.06095 -134.1
62.08991 -134.1
62.11927 -128.4
62.1518 -117.05
62.18297 -117.05
62.2163 -103.5
62.24608 -103.5
62.2766 -90.2
62.30548 -71.65
62.33637 -71.65
62.36379 -53.05
62.39271 -53.05
62.42597 -37.55
62.45381 -19
62.48073 -19
62.51228 -5.65
62.54185 -5.65
62.57518 8.05
62.60851 12.2
62.64095 12.2
62.66997 20.95
62.70264 34.7
62.73063 34.7
62.75974 49.8
62.78931 49.8
62.82159 63.75
62.8504 75.1
62.88374 75.1
62.91707 89.3
62.94513 89.3
62.97506 100.7
63.00839 115.3
63.04048 115.3
63.06819 129.5
63.09536 129.5
63.12495 141.95
63.15574 151.35
63.18514 151.35
63.21383 161.4
63.24576 161.4
63.2753 169.5
63.30864 173.65
63.34197 182.6
63.37056 182.6
63.40307 192
63.43198 192
63.46404 203.55
63.49442 215.35
63.52417 215.35
63.55204 218.4
63.57981 218.4
63.6123 218.4
63.64155 218.4
63.67225 218.4
63.70049 218.4
63.73291 218.4
63.76431 218.4
63.79626 218.4
63.82443 218.4
63.8559 218.4
63.88648 218.4
63.91443 218.4
63.9438 218.4
63.97713 218.4
64.00884 218.4
64.04073 218.4
64.07176 218.4
64.10084 218.4
64.13033 218.4
64.16014 218.4
64.18939 218.4
64.22272 218.4
64.25179 218.4
64.284 218.4
64.31225 218.4
64.34558 218.4
64.37724 218.4
64.40709 218.4
64.43523 218.4
64.46856 218.4
64.49772 218.4
64.52657 218.4
64.55592 218.4
64.58926 218.4
64.62259 218.4
64.65218 218.4
64.67989 218.4
64.71322 218.4
64.74199 218.4
64.77039 218.4
64.79841 218.4
64.83174 218.4
64.86118 218.4
64.89452 218.4
64.92278 218.4
64.95305 218.4
64.98191 218.4
65.00958 218.4
65.03736 218.4
65.06786 218.4
65.1012 218.4
65.13002 218.4
65.16286 218.4
65.19363 218.4
65.22537 218.4
65.25625 218.4
65.28423 218.4
65.3139 218.4
65.34268 218.4
65.37152 218.4
65.40151 218.4
65.43459 218.4
65.46792 218.4
65.49718 218.4
65.5273 218.4
65.55542 218.4
65.58875 218.4
65.62209 218.4
65.64878 218.4
65.68185 218.4
65.71179 218.4
65.74512 218.4
65.77846 218.4
65.80903 218.4
65.84101 218.4
65.87229 218.4
65.90139 218.4
65.93138 218.4
65.9605 218.4
65.99384 218.4
66.02117 218.4
66.05414 218.4
66.08595 218.4
66.11375 218.4
66.14128 218.4
66.17246 218.4
66.20322 218.4
66.23476 218.4
66.26288 218.4
66.29621 218.4
66.32954 218.4
66.35918 218.4
66.38737 218.4
66.41804 218.2
66.44788 218.2
66.47632 218.2
66.50619 218.2
66.53687 218
66.56731 215.15
66.59993 215.15
66.6266 209.05
66.65726 209.05
66.69019 202.9
66.72005 192.45
66.7475 192.45
66.78083 184.35
66.81148 174.1
66.84481 174.1
66.87386 167.1
66.90719 167.1
66.93661 160.55
66.96899 156.6
66.99694 156.6
67.03027 153.55
67.0592 150.5
67.08906 150.5
67.12 147.2
67.15128 147.2
67.18376 142.2
67.21281 136.95
67.24077 136.95
67.26962 126.65
67.30296 119.05
67.33328 119.05
67.36145 110.05
67.39362 110.05
67.42695 105.25
67.46028 98.7
67.48772 98.7
67.52027 91.95
67.54898 82.75
67.58135 82.75
67.61321 73.8
67.6431 73.8
67.67644 67.7
67.70457 61.35
67.73613 61.35
67.76922 56.35
67.80255 52.2
67.83588 52.2
67.86783 46.7
67.90116 41.05
67.93095 41.05
67.95996 36.9
67.988 36.9
68.01852 32.95
68.05186 26.4
68.08281 26.4
68.11423 18.55
68.14738 11.1
68.17894 11.1
68.2074 1.95
68.23563 1.95
68.26737 -4.55
68.29745 -7.85
68.32748 -7.85
68.3604 -8.5
68.39117 -8.3
68.42451 -8.3
68.45572 -8.3
68.48307 -8.3
68.51232 -8.3
68.54095 -8.3
68.57429 -8.3
68.60274 -8.3
68.63607 -7.85
68.66376 -7.85
68.69709 -6.55
68.72448 -6.55
68.75512 -4.8
68.78845 -3.45
68.8159 -3.45
68.8429 -2.15
68.87297 -2.15
68.90429 -1.7
68.93257 -1.5
68.96417 -1.5
68.99334 -1.5
69.02667 -1.5
69.05508 -1.5
69.08442 -1.5
69.11459 -1.5
69.14555 -1.5
69.17751 -1.5
69.21085 -1.5
69.24357 -1.5
69.27221 -1.5
69.29977 -1.5
69.33218 -1.5
69.36147 -1.5
69.39169 -1.5
69.42084 -1.5
69.4489 -1.5
69.48071 -1.5
69.51131 -1.5
69.54051 -1.5
69.5708 -1.5
69.59956 -1.5
69.62897 -1.5
69.66231 -1.5
69.68934 -1.5
69.71811 -1.5
69.75144 -1.5
69.78429 -1.5
69.81236 -1.5
69.84438 -1.5
69.87366 -1.5
69.90186 -1.5
69.92949 -1.5
69.95928 -1.5
69.98967 -1.5
70.02159 -1.5
70.05289 -1.5
70.08622 -1.5
70.11888 -1.5
70.15221 -1.5
70.18082 -1.5
70.20921 -1.5
70.2417 -1.5
70.27503 -1.5
70.30528 -1.5
70.33553 -1.5
70.36617 -1.5
70.39527 -1.5
70.42364 -1.5
70.45263 -1.5
70.4834 -1.5
70.51366 -1.5
70.547 -1.5
70.58033 -1.5
70.61267 -1.5
70.64085 -1.5
70.67287 -1.5
70.7053 -1.5
70.73776 -1.5
70.7662 -1.5
70.79363 -1.5
70.82474 -1.5
70.85807 -1.5
70.88538 -1.5
70.91309 -1.5
70.94643 -1.5
70.97976 -1.5
71.01017 -1.5
71.04333 -1.5
71.07452 -1.5
71.10332 -1.5
71.13151 -1.5
71.15893 -1.5
71.18987 -1.5
71.2232 -1.5
71.25294 -1.5
71.28173 -1.5
71.31506 -1.5
71.34565 -1.5
71.37537 -1.5
71.40582 -1.5
71.43764 -1.5
71.46793 -1.5
71.49567 -1.5
71.52456 -1.5
71.5563 -1.5
71.58646 -1.5
71.6198 -1.5
71.64796 -1.5
71.67895 -1.5
71.71228 -1.5
71.74013 -1.5
71.77214 -1.5
71.801 -1.5
71.83434 -1.5
71.86767 -1.5
71.89417 -1.5
71.92338 -1.5
71.95298 -1.5
71.98123 -1.5
72.00853 -1.5
72.03906 -1.5
72.0679 -1.5
72.09632 -1.5
72.12402 -1.5
72.1533 -1.5
72.18311 -1.5
72.21645 -1.5
72.24517 -1.5
72.27826 -1.5
72.30868 -1.5
72.33984 -1.5
72.36808 -1.5
72.39832 -1.5
72.43047 -1.5
72.45857 -1.5
72.48769 -1.5
72.51865 -1.5
72.55199 -1.5
72.57928 -1.5
72.60748 -1.5
72.63721 -1.5
72.67054 -1.5
72.70387 -1.5
72.73141 -1.5
72.76156 -1.5
72.79489 -1.5
72.82776 -1.5
72.85661 -1.5
72.88729 -1.5
72.92062 -1.5
72.95233 -1.5
72.98213 -1.5
73.01376 -1.5
73.04322 -1.5
73.07294 -1.5
73.10532 -1.5
73.13607 -1.5
73.16613 -1.5
73.19449 -1.5
73.22782 -1.5
73.2568 -1.5
73.28769 -1.5
73.3207 -1.5
73.35104 -1.5
73.38084 -1.5
73.41135 -1.5
73.44105 -1.5
73.47085 -1.5
73.50104 -1.5
73.53378 -1.5
73.56633 -1.5
73.59399 -1.5
73.62733 -1.5
73.65839 -1.5
73.68649 -1.5
73.71327 -1.5
73.74142 -1.5
73.77476 -1.5
73.80298 -1.5
73.83112 -1.5
73.86163 -1.5
73.89375 -1.5
73.92198 -1.5
73.95048 -1.5
73.98116 -1.5
74.01449 -1.5
74.04449 -1.5
74.07551 -1.5
74.10692 -1.5
74.13829 -1.5
74.16605 -1.5
74.19449 -1.5
74.22605 -1.5
74.25608 -1.5
74.28439 -1.5
74.31112 -1.5
74.33984 -1.5
74.37318 -1.5
74.40333 -1.5
74.43666 -1.5
74.46503 -1.5
74.49836 -1.5
74.53116 -1.5
74.55888 -1.5
74.59222 -1.5
74.62247 -1.5
74.65433 -1.5
74.6813 -1.5
74.71323 -1.5
74.74429 -1.5
74.77327 -1.5
74.8066 -1.5
74.83855 -1.5
74.86952 -1.5
74.90089 -1.5
74.92895 -1.5
74.95808 -1.5
74.99115 -1.5
75.02059 -1.5
75.04855 -1.5
75.07939 -1.95
75.11272 -2.15
75.14606 -2.15
75.17439 -2.4
75.20322 -2.4
75.23311 -2.4
75.2609 -2.4
75.28993 -2.4
75.3186 -2.4
75.34894 -2.4
75.37969 -2.4
75.40891 -2.4
75.44225 -2.4
75.47353 -2.4
75.50156 -2.4
75.52934 -2.4
75.55846 -2.4
75.5879 -2.4
75.61647 -2.4
75.64771 -2.4
75.6779 -2.4
75.70654 -2.4
75.73862 -2.4
75.7653 -2.4
75.79742 -2.4
75.82619 -2.4
75.85352 -2.4
75.88255 -2.4
75.91551 -2.4
75.94736 -2.4
75.97482 -2.4
76.00269 -2.4
76.03329 -2.4
76.06355 -2.4
76.09341 -2.4
76.12674 -2.4
76.15855 -2.4
76.19189 -2.4
76.22349 -2.4
76.25682 -2.4
76.28488 -2.4
76.31628 -2.4
76.34617 -2.4
76.37732 -2.4
76.40887 -2.4
76.44012 -2.4
76.47345 -2.4
76.50005 -2.4
76.53339 -2.4
76.56672 -2.4
76.594 -2.4
76.62371 -2.4
76.65704 -2.4
76.69038 -2.4
76.71885 -2.4
76.74569 -2.4
76.77692 -2.4
76.80785 -2.4
76.83519 -2.4
76.86202 -2.4
76.89536 -2.4
76.92619 -2.4
76.95792 -2.4
76.98631 -2.4
77.01543 -2.4
77.04476 -2.4
77.07684 -2.4
77.10832 -2.4
77.13946 -2.4
77.16953 -2.4
77.20087 -2.4
77.23012 -2.4
77.25985 -2.4
77.29197 -2.4
77.32348 -2.4
77.35139 -2.4
77.37961 -2.4
77.4094 -2.4
77.4382 -2.4
77.47085 -2.4
77.50174 -2.4
77.5299 -2.4
77.55751 -2.4
77.58614 -2.4
77.61659 -2.4
77.64993 -2.4
77.67874 -2.4
77.7072 -2.4
77.7379 -2.4
77.76797 -2.4
77.79653 -2.4
77.82677 -2.4
77.85685 -2.4
77.88758 -2.4
77.91738 -2.4
77.94993 -2.4
77.97969 -2.4
78.01018 -2.4
78.04079 -2.4
78.06992 -2.4
78.09951 -2.4
78.12853 -2.4
78.15586 -2.4
78.18311 -2.4
78.21423 -2.4
78.24756 -2.4
78.27672 -2.4
78.30761 -2.4
78.33796 -2.4
78.36823 -2.4
78.396 -2.4
78.42384 -2.4
78.45245 -2.4
78.48234 -2.4
78.51443 -2.4
78.54282 -2.4
78.57159 -2.4
78.60074 -2.4
78.629 -2.4
78.65941 -2.4
78.688 -2.4
78.72052 -2.4
78.75385 -2.4
78.78447 -2.4
78.81676 -2.4
78.85009 -2.4
78.8803 -2.4
78.9091 -2.4
78.93912 -2.4
78.96927 -2.4
78.99777 -2.4
79.02483 -2.4
79.05444 -2.4
79.08492 -2.4
79.11555 -2.4
79.14481 -2.4
79.17814 -2.4
79.20816 -2.4
79.24149 -2.4
79.27036 -2.4
79.29882 -2.4
79.33215 -2.4
79.36549 -2.4
79.39511 -2.4
79.42844 -2.4
79.46051 -2.4
79.48908 -2.4
79.52173 -2.4
79.55319 -2.4
79.58249 -2.4
79.61583 -2.4
79.64358 -2.4
79.67631 -2.4
79.70964 -2.4
79.73689 -2.4
79.76642 -2.4
79.7989 -2.4
79.83082 -2.4
79.86415 -2.4
79.89148 -2.4
79.92188 -2.4
79.95114 -2.4
79.9843 -2.4
80.01241 -2.4
80.04157 -2.4
80.07491 -2.4
80.10321 -2.4
80.13475 -2.4
80.16317 -2.4
80.19429 -2.4
80.22469 -2.4
80.25803 -2.4
80.28815 -2.4
80.32024 -2.4
80.34869 -2.4
80.37802 -2.4
80.4063 -2.4
80.43597 -2.4
80.46786 -2.4
80.50042 -2.4
80.52958 -2.4
80.56165 -2.4
80.58965 -2.4
80.61668 -2.4
80.64603 -2.4
80.67684 -2.4
80.70599 -2.4
80.73472 -2.4
80.76336 -2.4
80.79181 -2.4
80.82293 -2.4
80.85051 -2.4
80.88237 -2.4
80.91334 -2.4
80.94118 -2.4
80.96792 -2.4
81.00125 -2.4
81.03044 -2.4
81.06377 -2.4
81.09528 -2.4
81.12439 -2.4
81.15385 -2.4
81.18109 -2.4
81.21044 -2.4
81.24377 -2.4
81.27322 -2.4
81.30124 -2.4
81.33088 -2.4
81.36024 -2.4
81.38907 -2.4
81.4224 -2.4
81.45473 -2.4
81.48399 -2.4
81.51733 -2.4
81.54985 -2.4
81.57824 -2.4
81.60966 -2.4
81.63891 -2.4
81.66994 -2.4
81.69912 -2.4
81.72773 -2.4
81.75932 -2.4
81.78862 -2.4
81.81686 -2.4
81.84815 -2.4
81.88148 -2.4
81.90869 -2.4
81.93782 -2.4
81.96908 -2.4
81.99817 -2.4
82.0315 -2.4
82.06483 -2.4
82.09817 -2.4
82.1315 -2.4
82.16095 -2.4
82.19076 -2.4
82.22079 -2.4
82.25166 -2.4
82.28152 -2.4
82.30914 -2.4
82.34248 -2.4
82.37511 -2.4
82.40554 -2.4
82.43364 -2.4
82.46422 -2.4
82.49374 -2.4
82.52359 -2.4
82.55068 -2.4
82.5826 -2.4
82.6124 -2.4
82.644 -2.4
82.67648 -2.4
82.70547 -2.4
82.73626 -2.4
82.76421 -2.4
82.79755 -2.4
82.8278 -2.4
82.85661 -2.4
82.88811 -2.4
82.91574 -2.4
82.94531 -2.4
82.97532 -2.4
83.00865 -2.4
83.03979 -2.4
83.07312 -2.4
83.10645 -2.4
83.13568 -2.4
83.16368 -2.4
83.19537 -2.4
83.22604 -2.4
83.25938 -2.4
83.28755 -2.4
83.32088 -2.4
83.35179 -2.4
83.37985 -2.4
83.40781 -2.4
83.43801 -2.4
83.46862 -2.4
83.50195 -2.4
83.53043 -2.4
83.56377 -2.4
83.59359 -2.4
83.62692 -2.4
83.66026 -2.4
83.69136 -2.4
83.72043 -2.4
83.74892 -2.15
83.78201 -2.15
83.81469 -2.15
83.8455 -2.15
83.87516 -2.15
83.90334 -2.15
83.93668 -2.15
83.96514 -2.15
83.99475 -2.15
84.02808 -2.15
84.05878 -2.15
84.09044 -2.15
84.12378 -2.15
84.15124 -2.15
84.18141 -2.15
84.21098 -2.15
84.23956 -2.15
84.269 -2.15
84.29884 -2.15
84.33071 -2.15
84.36082 -2.15
84.39294 -2.15
84.422 -2.15
84.45366 -2.15
84.48209 -2.15
84.51083 -2.15
84.54129 -2.15
84.57137 -2.15
84.60012 -2.15
84.63103 -2.15
84.66437 -2.15
84.69541 -2.15
84.72601 -2.15
84.75427 -2.15
84.78761 -2.15
84.82095 -2.15
84.85268 -2.15
84.88022 -2.15
84.90981 -2.15
84.94305 -2.15
84.97494 -2.15
85.00491 -2.15
85.03824 -2.15
85.07123 -2.15
85.10456 -2.15
85.13332 -2.15
85.16341 -2.15
85.19326 -2.15
85.22141 -2.15
85.24894 -2.15
85.27789 -2.15
85.30834 -2.15
85.33663 -2.15
85.3672 -2.15
85.40053 -2.15
85.43118 -2.15
85.45974 -2.15
85.49184 -2.15
85.52477 -2.15
85.55447 -2.15
85.5836 -2.15
85.61694 -2.15
85.6479 -2.15
85.68124 -2.15
85.71306 -2.15
85.74227 -2.15
85.7756 -2.15
85.807 -2.15
85.83531 -2.15
85.86434 -2.15
85.89411 -2.15
85.92488 -2.15
85.95821 -2.15
85.98851 -2.15
86.0165 -2.15
86.04735 -2.15
86.08068 -2.15
86.11401 -2.15
86.1471 -2.15
86.17626 -2.15
86.20511 -2.15
86.23408 -2.15
86.26741 -2.15
86.29779 -2.15
86.33071 -2.15
86.35915 -2.15
86.39248 -2.15
86.42303 -2.15
86.45636 -2.15
86.4897 -2.15
86.52064 -2.15
86.55067 -2.15
86.57917 -2.15
86.60835 -2.15
86.64168 -2.15
86.67502 -2.15
86.70835 -2.15
86.74168 -2.15
86.7718 -2.15
86.80478 -2.15
86.83811 -2.15
86.8685 -2.15
86.90183 -2.15
86.93352 -2.15
86.96286 -2.15
86.99197 -2.15
87.02283 -2.15
87.0534 -2.15
87.08259 -2.15
87.11402 -2.15
87.14735 -2.15
87.17869 -2.15
87.20985 -2.15
87.23795 -2.15
87.27129 -2.15
87.30093 -2.15
87.33117 -2.15
87.36007 -2.15
87.39259 -2.15
87.42159 -2.15
87.45206 -2.15
87.48028 -2.4
87.51006 -2.4
87.53992 -2.6
87.56769 -2.6
87.59894 -3.45
87.63228 -4.35
87.66561 -4.35
87.69414 -4.55
87.72547 -4.55
87.75448 -4.55
87.78781 -4.55
87.82114 -4.55
87.85249 -4.55
87.88316 -4.55
87.9165 -4.55
87.94983 -4.55
87.97725 -4.55
88.01058 -4.55
88.04205 -4.55
88.07077 -4.55
88.09892 -4.55
88.12787 -4.55
88.16042 -4.55
88.19375 -4.55
88.22133 -4.55
88.25248 -4.55
88.28303 -4.55
88.31203 -4.55
88.33928 -4.55
88.36948 -4.55
88.40282 -4.55
88.43615 -4.55
88.46409 -4.55
88.49313 -4.55
88.5241 -4.55
88.55429 -4.55
88.58282 -4.55
88.61519 -4.55
88.64529 -4.55
88.67423 -4.55
88.70327 -4.55
88.73264 -4.55
88.76186 -4.55
88.79424 -4.55
88.82758 -4.55
88.86091 -4.55
88.89264 -4.55
88.92179 -4.55
88.95382 -4.55
88.98479 -4.55
89.0163 -4.55
89.04445 -4.55
89.0739 -4.55
89.10397 -4.55
89.13529 -4.55
89.16325 -4.55
89.19083 -4.55
89.22002 -4.55
89.25336 -4.55
89.28388 -4.55
89.31107 -4.55
89.34277 -4.55
89.3761 -4.55
89.40806 -4.55
89.43857 -4.55
89.47189 -4.55
89.50253 -4.55
89.53156 -4.55
89.5649 -4.55
89.59461 -4.55
89.62794 -4.55
89.66128 -4.55
89.69255 -4.55
89.72589 -4.55
89.75922 -4.55
89.78977 -4.55
89.81921 -4.55
89.85049 -4.55
89.88383 -4.55
89.91478 -4.55
89.94344 -4.55
89.97306 -4.55
90.00499 -4.55
90.03711 -4.55
90.07044 -4.55
90.10068 -4.55
90.13153 -4.55
90.16296 -4.55
90.18987 -4.55
90.22005 -4.55
90.2497 -4.55
90.27891 -4.55
90.30989 -4.55
90.33902 -4.55
90.36772 -4.55
90.39668 -4.55
90.42549 -4.55
90.45551 -4.55
90.48522 -4.55
90.51448 -4.55
90.54259 -4.55
90.57269 -4.55
90.60229 -4.55
90.63265 -4.55
90.66371 -4.55
90.69449 -4.55
90.72782 -4.55
90.75936 -4.55
90.78907 -4.55
90.82241 -4.55
90.85205 -4.55
90.88096 -4.55
90.91011 -4.55
90.94282 -4.55
90.97198 -4.55
91.00027 -4.55
91.03362 -4.55
91.06337 -4.55
91.09354 -4.55
91.12382 -4.55
91.15041 -4.55
91.18002 -4.55
91.21335 -4.55
91.24668 -4.55
91.27457 -4.55
91.30678 -4.55
91.34012 -4.55
91.36762 -4.55
91.39542 -4.55
91.42776 -4.55
91.45976 -4.55
91.48951 -4.55
91.52284 -4.55
91.55443 -4.55
91.58557 -4.55
91.61403 -4.55
91.64736 -4.55
91.67719 -4.55
91.70729 -4.55
91.73495 -4.55
91.7636 -4.55
91.79227 -4.55
91.82114 -4.55
91.85371 -4.55
91.88241 -4.55
91.91174 -4.55
91.94261 -4.55
91.97041 -4.55
92.00375 -4.55
92.03508 -4.55
92.0647 -4.55
92.09224 -4.55
92.12222 -4.55
92.15041 -4.55
92.18253 -4.55
92.21586 -4.55
92.24264 -4.55
92.27322 -4.55
92.30469 -4.55
92.33405 -4.55
92.36063 -4.55
92.39045 -4.55
92.42048 -4.55
92.44851 -4.55
92.47916 -4.55
92.50883 -4.55
92.54061 -4.55
92.57298 -4.55
92.60028 -4.55
92.63361 -4.55
92.66313 -4.55
92.69485 -4.55
92.72818 -4.55
92.75664 -4.55
92.78846 -4.55
92.81654 -4.55
92.84484 -4.55
92.87608 -4.55
92.90871 -4.55
92.93779 -4.55
92.9669 -4.55
92.9964 -4.55
93.025 -4.55
93.05833 -4.55
93.08651 -4.55
93.11777 -4.55
93.14926 -4.55
93.17802 -4.55
93.20691 -4.55
93.24024 -4.55
93.27357 -4.55
93.30253 -4.55
93.33472 -4.55
93.36446 -4.55
93.3934 -4.55
93.42223 -4.55
93.45001 -4.55
93.47958 -4.55
93.50837 -4.55
93.53687 -4.55
93.56963 -4.55
93.60043 -4.55
93.63376 -4.55
93.66227 -4.55
93.69456 -4.55
93.72347 -4.55
93.75336 -4.55
93.78474 -4.55
93.81419 -4.55
93.84499 -4.55
93.87766 -4.55
93.90976 -4.55
93.94019 -4.55
93.97337 -4.55
94.00315 -4.55
94.03269 -4.55
94.06023 -4.55
94.08915 -4.55
94.12053 -4.55
94.15289 -4.55
94.18342 -4.55
94.21581 -4.55
94.24454 -4.55
94.27237 -4.55
94.3045 -4.55
94.33784 -4.55
94.37114 -4.55
94.39872 -4.55
94.42828 -4.55
94.45977 -4.55
94.48982 -4.55
94.519 -4.55
94.5474 -4.55
94.57677 -4.55
94.60585 -4.55
94.63744 -4.55
94.66413 -4.55
94.69488 -4.55
94.7281 -4.55
94.75983 -4.55
94.78845 -4.55
94.81772 -4.55
94.8478 -4.55
94.87635 -4.55
94.90369 -4.55
94.93328 -4.55
94.96283 -4.55
94.9914 -4.55
95.02216 -4.55
95.05163 -4.55
95.08041 -4.55
95.11073 -4.55
95.14374 -4.55
95.1729 -4.55
95.20157 -4.55
95.23129 -4.55
95.25869 -4.55
95.28902 -4.55
95.32109 -4.55
95.34902 -4.55
95.38235 -4.55
95.41315 -4.55
95.44557 -4.55
95.47335 -4.55
95.50046 -4.55
95.5291 -4.55
95.56159 -4.55
95.5937 -4.55
95.61952 -4.55
95.65179 -4.55
95.6834 -4.55
95.7157 -4.55
95.74395 -4.55
95.77615 -4.55
95.80878 -4.55
95.83971 -4.55
95.8678 -4.55
95.90113 -4.55
95.93025 -4.55
95.95895 -4.55
95.9875 -4.55
96.01609 -4.55
96.04943 -4.55
96.077 -4.55
96.1059 -4.55
96.13485 -4.55
96.16445 -4.55
96.19566 -4.55
96.2239 -4.55
96.25397 -4.55
96.28731 -4.55
96.31675 -4.55
96.346 -4.55
96.37651 -4.55
96.40656 -4.55
96.43365 -4.55
96.46149 -4.55
96.49482 -4.55
96.5267 -4.55
96.55765 -4.55
96.59042 -4.55
96.62057 -4.55
96.65005 -4.55
96.68066 -4.55
96.70776 -4.55
96.73701 -4.55
96.7664 -4.55
96.79815 -4.55
96.82601 -4.55
96.85541 -4.55
96.8872 -4.55
96.91765 -4.55
96.94474 -4.55
96.97326 -4.55
97.00244 -4.55
97.03269 -4.55
97.06089 -4.55
97.09255 -4.55
97.12231 -4.55
97.15332 -4.55
97.18563 -4.55
97.21896 -4.55
97.25031 -4.55
97.28036 -4.55
97.30943 -4.55
97.33882 -4.55
97.37032 -4.55
97.40203 -4.55
97.42886 -4.55
97.45973 -4.55
97.49306 -4.55
97.52003 -4.55
97.5472 -4.55
97.57955 -4.55
97.61288 -4.55
97.64291 -4.55
97.67042 -4.55
97.70328 -4.55
97.73249 -4.55
97.76408 -4.55
97.792 -4.55
97.82189 -4.55
97.85158 -4.55
97.88171 -4.55
97.91055 -4.55
97.94011 -4.55
97.96961 -4.55
98.0009 -4.55
98.02813 -4.55
98.05876 -4.55
98.08761 -4.55
98.11876 -4.55
98.14609 -4.55
98.17508 -4.55
98.20841 -4.55
98.24028 -4.55
98.2692 -4.55
98.30253 -4.55
98.33586 -4.55
98.36646 -4.55
98.39542 -4.55
98.42477 -4.55
98.45377 -4.55
98.4827 -4.55
98.51127 -4.55
98.54288 -4.55
98.57208 -4.55
98.60198 -4.55
98.62963 -4.55
98.65819 -4.55
98.68736 -4.55
98.71594 -4.55
98.74454 -4.55
98.7742 -4.55
98.80322 -4.55
98.83651 -4.55
98.86391 -4.55
98.89371 -4.55
98.92455 -4.55
98.95441 -4.55
98.9808 -4.55
99.01164 -4.55
99.04498 -4.55
99.07446 -4.55
99.1036 -4.55
99.13693 -4.55
99.16563 -4.55
99.19871 -4.55
99.23026 -4.55
99.25982 -4.55
99.28886 -4.55
99.3222 -4.55
99.35177 -4.55
99.38187 -4.55
99.41521 -4.55
99.44854 -4.55
99.47871 -4.55
99.50723 -4.55
99.53763 -4.55
99.56564 -4.55
99.59299 -4.55
99.62226 -4.55
99.65455 -4.55
99.68314 -4.55
99.71181 -4.55
99.74168 -4.55
99.77502 -4.55
99.80461 -4.55
99.83211 -4.55
99.86544 -4.55
99.89796 -4.55
99.92754 -4.55
99.95525 -4.55
99.98411 -4.55
100.013 -4.55
100.0435 -4.55
100.0708 -4.55
100.0997 -4.55
100.13 -4.55
100.1579 -4.55
100.1859 -4.55
100.2147 -4.55
100.2458 -4.55
100.2748 -4.55
100.3039 -4.55
100.3353 -4.55
100.3658 -4.55
100.3945 -4.55
100.4218 -4.55
100.4528 -4.55
100.4828 -4.55
100.5161 -4.55
100.5467 -4.55
100.5759 -4.55
100.6079 -4.55
100.6386 -4.55
100.6668 -4.55
100.7001 -4.55
100.7335 -4.55
100.7637 -4.55
100.7927 -4.55
100.8222 -4.55
100.8555 -4.55
100.884 -4.55
100.9155 -4.55
100.9446 -4.55
100.9752 -4.55
101.0053 -4.55
101.0379 -4.55
101.0707 -4.55
101.0997 -4.55
101.1285 -4.55
101.159 -4.55
101.1892 -4.55
101.2207 -4.55
101.2496 -4.55
101.2792 -4.55
101.3086 -4.55
101.3368 -4.55
101.3645 -4.55
101.3913 -4.55
101.4247 -4.55
101.4542 -4.55
101.482 -4.55
101.5138 -4.55
101.5439 -4.55
101.5738 -4.55
101.6035 -4.55
101.6333 -4.55
101.6617 -4.55
101.691 -4.55
101.721 -4.55
101.7503 -4.55
101.78 -4.55
101.8102 -4.55
101.8435 -4.55
101.8736 -4.55
101.9051 -4.55
101.9377 -4.55
101.9704 -4.55
101.9982 -4.55
102.0293 -4.55
102.0581 -4.55
102.091 -4.55
102.1181 -4.55
102.1473 -4.55
102.1788 -4.55
102.2073 -4.55
102.2348 -4.55
102.2646 -4.55
102.2939 -4.55
102.3255 -4.55
102.3589 -4.55
102.388 -4.55
102.4214 -4.55
102.4489 -4.55
102.4806 -4.55
102.511 -4.55
102.5429 -4.55
102.5718 -4.55
102.5984 -4.55
102.6274 -4.55
102.6583 -4.55
102.6916 -4.55
102.725 -4.55
102.7554 -4.55
102.7851 -4.55
102.813 -4.55
102.8414 -4.55
102.8719 -4.55
102.9015 -4.55
102.9293 -4.55
102.9594 -4.55
102.9883 -4.55
103.0187 -4.55
103.0513 -4.55
103.0799 -4.55
103.1103 -4.55
103.14 -4.55
103.1711 -4.55
103.2035 -4.55
103.2345 -4.55
103.2633 -4.55
103.2916 -4.55
103.3187 -4.55
103.3491 -4.55
103.3799 -4.55
103.4106 -4.55
103.4383 -4.55
103.4708 -4.55
103.501 -4.55
103.5297 -4.55
103.5573 -4.55
103.5906 -4.55
103.6206 -4.55
103.6488 -4.55
103.6766 -4.55
103.71 -4.55
103.7401 -4.55
103.7684 -4.55
103.7955 -4.55
103.825 -4.55
103.8583 -4.55
103.8888 -4.55
103.9178 -4.55
103.947 -4.55
103.9761 -4.55
104.0037 -4.55
104.0313 -4.55
104.0623 -4.55
104.093 -4.55
104.1263 -4.55
104.1547 -4.55
104.1844 -4.55
104.2178 -4.55
104.2463 -4.55
104.2796 -4.55
104.3115 -4.55
104.3446 -4.55
104.3727 -4.55
104.3995 -4.55
104.4314 -4.55
104.4638 -4.55
104.4947 -4.55
104.5273 -4.55
104.5595 -4.55
104.5891 -4.55
104.6201 -4.55
104.647 -4.55
104.6756 -4.55
104.706 -4.55
104.738 -4.55
104.7651 -4.55
104.7977 -4.55
104.831 -4.55
104.8588 -4.55
104.8922 -4.55
104.9248 -4.55
104.9561 -4.55
104.987 -4.55
105.0187 -4.55
105.0467 -4.55
105.0755 -4.55
105.1083 -4.55
105.1352 -4.55
105.1686 -4.55
105.1976 -4.55
105.2256 -4.55
105.2588 -4.55
105.2887 -4.55
105.3221 -4.55
105.3545 -4.55
105.3847 -4.55
105.4132 -4.55
105.4451 -4.55
105.4777 -4.55
105.5041 -4.55
105.535 -4.55
105.5644 -4.55
105.5927 -4.55
105.6256 -4.55
105.6586 -4.55
105.6885 -4.55
105.7185 -4.55
105.7467 -4.55
105.78 -4.55
105.8119 -4.55
105.842 -4.55
105.8687 -4.55
105.898 -4.55
105.9294 -4.55
105.96 -4.55
105.9875 -4.55
106.017 -4.55
106.0484 -4.55
106.0816 -4.55
106.1129 -4.55
106.1423 -4.55
106.1711 -4.55
106.2011 -4.55
106.2281 -4.55
106.2572 -4.55
106.2876 -4.55
106.3156 -4.55
106.347 -4.55
106.3765 -4.55
106.4077 -4.55
106.439 -4.55
106.4714 -4.55
106.5043 -4.55
106.5363 -4.55
106.5696 -4.55
106.6023 -4.55
106.6338 -4.55
106.6659 -4.55
106.6942 -4.55
106.7218 -4.55
106.7551 -4.55
106.7858 -4.55
106.8156 -4.55
106.844 -4.55
106.8761 -4.55
106.9094 -4.55
106.9396 -4.55
106.9689 -4.55
106.9992 -4.55
107.0284 -4.55
107.0578 -4.55
107.0912 -4.55
107.1227 -4.55
107.1519 -4.55
107.1817 -4.55
107.215 -4.55
107.2434 -4.55
107.2756 -4.55
107.3063 -4.55
107.336 -4.55
107.3653 -4.55
107.3931 -4.55
107.4205 -4.55
107.4481 -4.55
107.4815 -4.55
107.514 -4.55
107.5459 -4.55
107.5772 -4.55
107.6105 -4.55
107.639 -4.55
107.667 -4.55
107.6944 -4.55
107.7229 -4.55
107.7525 -4.55
107.7809 -4.55
107.8113 -4.55
107.8447 -4.55
107.8734 -4.55
107.9012 -4.55
107.9318 -4.55
107.9651 -4.55
107.9941 -4.55
108.0252 -4.55
108.0519 -4.55
108.0844 -4.55
108.113 -4.55
108.1423 -4.55
108.1706 -4.55
108.2021 -4.55
108.2327 -4.55
108.2661 -4.55
108.2953 -4.55
108.3248 -4.55
108.3532 -4.55
108.3835 -4.55
108.4126 -4.55
108.4425 -4.55
108.4717 -4.55
108.5001 -4.55
108.5291 -4.55
108.5616 -4.55
108.5931 -4.55
108.6259 -4.55
108.6545 -4.55
108.6834 -4.55
108.7167 -4.55
108.7449 -4.55
108.7763 -4.55
108.8051 -4.55
108.8384 -4.55
108.8658 -4.55
108.897 -4.55
108.928 -4.55
108.9571 -4.55
108.9853 -4.55
109.0133 -4.55
109.0427 -4.55
109.0725 -4.55
109.1029 -4.55
109.13 -4.55
109.1587 -4.55
109.1899 -4.55
109.2193 -4.55
109.2526 -4.55
109.2836 -4.55
109.3133 -4.55
109.3452 -4.55
109.372 -4.55
109.4016 -4.55
109.431 -4.55
109.4594 -4.55
109.4862 -4.55
109.5195 -4.55
109.5507 -4.55
109.5792 -4.55
109.6079 -4.55
109.6412 -4.55
109.6703 -4.55
109.6983 -4.55
109.7257 -4.55
109.7578 -4.55
109.7911 -4.55
109.8229 -4.55
109.8521 -4.55
109.8831 -4.55
109.912 -4.55
109.9417 -4.55
109.972 -4.55
110.0014 -4.55
110.0334 -4.55
110.0608 -4.55
110.0908 -4.55
110.1189 -4.55
110.1503 -4.55
110.1777 -4.55
110.2088 -4.55
110.2377 -4.55
110.2668 -4.55
110.2987 -4.55
110.3288 -4.55
110.36 -4.55
110.3905 -4.55
110.4212 -4.55
110.452 -4.55
110.4808 -4.55
110.5138 -4.55
110.5452 -4.55
110.5727 -4.55
110.6023 -4.55
110.6305 -4.55
110.6606 -4.55
110.6908 -4.55
110.7191 -4.55
110.7486 -4.55
110.7764 -4.55
110.8071 -4.55
110.8405 -4.55
110.8707 -4.55
110.8993 -4.55
110.9283 -4.55
110.9612 -4.55
110.9945 -4.55
111.0224 -4.55
111.0498 -4.55
111.078 -4.55
111.1063 -4.55
111.1349 -4.55
111.1641 -4.55
111.1967 -4.55
111.2259 -4.55
111.2553 -4.55
111.282 -4.55
111.3119 -4.55
111.3409 -4.55
111.3684 -4.55
111.3963 -4.55
111.4296 -4.55
111.463 -4.55
111.4914 -4.55
111.519 -4.55
111.5489 -4.55
111.579 -4.55
111.6123 -4.55
111.6434 -4.55
111.6724 -4.55
111.7029 -4.55
111.7334 -4.55
111.7604 -4.55
111.7898 -4.55
111.8231 -4.55
111.852 -4.55
111.8802 -4.55
111.91 -4.55
111.9393 -4.55
111.9688 -4.55
112.0016 -4.55
112.0316 -4.55
112.0637 -4.55
112.0918 -4.55
112.1188 -4.55
112.1488 -4.55
112.1786 -4.55
112.2076 -4.55
112.2353 -4.55
112.2664 -4.55
112.2972 -4.55
112.3253 -4.55
112.3528 -4.55
112.3842 -4.55
112.4126 -4.55
112.4441 -4.55
112.4709 -4.55
112.502 -4.55
112.5333 -4.55
112.5619 -4.55
112.5905 -4.55
112.6238 -4.55
112.6571 -4.55
112.6859 -4.55
112.7139 -4.55
112.7441 -4.55
112.7775 -4.55
112.8052 -4.55
112.834 -4.55
112.8632 -4.55
112.8953 -4.55
112.9229 -4.55
112.9498 -4.55
112.9794 -4.55
113.0094 -4.55
113.0414 -4.55
113.07 -4.55
113.1033 -4.55
113.133 -4.55
113.1618 -4.55
113.1932 -4.55
113.2221 -4.55
113.255 -4.55
113.2838 -4.55
113.3152 -4.55
113.3458 -4.55
113.3791 -4.55
113.4085 -4.55
113.436 -4.55
113.4663 -4.55
113.498 -4.55
113.5313 -4.55
113.5586 -4.55
113.5919 -4.55
113.6222 -4.55
113.6505 -4.55
113.6812 -4.55
113.7142 -4.55
113.7425 -4.55
113.7758 -4.55
113.807 -4.55
113.8403 -4.55
113.8704 -4.55
113.8996 -4.55
113.9307 -4.55
113.964 -4.55
113.9947 -4.55
114.0243 -4.55
114.0533 -4.55
114.0866 -4.55
114.12 -4.55
114.1514 -4.55
114.1839 -4.55
114.2172 -4.55
114.248 -4.55
114.2768 -4.55
114.3055 -4.55
114.3344 -4.55
114.3629 -4.55
114.391 -4.55
114.4189 -4.55
114.4491 -4.55
114.4825 -4.55
114.5139 -4.55
114.5417 -4.55
114.5719 -4.55
114.6052 -4.55
114.6362 -4.55
114.6641 -4.55
114.6934 -4.55
114.7247 -4.55
114.7566 -4.55
114.7861 -4.55
114.8194 -4.55
114.8524 -4.55
114.8826 -4.55
114.9102 -4.55
114.9412 -4.55
114.9709 -4.55
115.0042 -4.55
115.0325 -4.55
115.0653 -4.55
115.0953 -4.55
115.1235 -4.55
115.1517 -4.55
115.181 -4.55
115.2144 -4.55
115.2476 -4.55
115.2809 -4.55
115.3095 -4.55
115.3427 -4.55
115.3713 -4.55
115.3995 -4.55
115.4328 -4.55
115.4618 -4.55
115.4902 -4.55
115.5236 -4.55
115.5562 -4.55
115.5896 -4.55
115.6179 -4.55
115.6469 -4.55
115.6757 -4.55
115.7044 -4.55
115.7318 -4.55
115.7605 -4.55
115.7928 -4.55
115.8261 -4.55
115.8584 -4.55
115.8897 -4.55
115.9181 -4.55
115.9508 -4.55
115.9823 -4.55
116.011 -4.55
116.0428 -4.55
116.0723 -4.55
116.1003 -4.55
116.1336 -4.55
116.1652 -4.55
116.1952 -4.55
116.2233 -4.55
116.2509 -4.55
116.2801 -4.55
116.3134 -4.55
116.3431 -4.55
116.3704 -4.55
116.401 -4.55
116.4343 -4.55
116.4668 -4.55
116.4989 -4.55
116.5311 -4.55
116.5596 -4.55
116.5888 -4.55
116.6216 -4.55
116.6499 -4.55
116.6795 -4.55
116.7072 -4.55
116.7343 -4.55
116.7672 -4.55
116.7966 -4.55
116.8284 -4.55
116.8617 -4.55
116.8929 -4.55
116.9208 -4.55
116.9517 -4.55
116.9787 -4.55
117.0105 -4.55
117.0432 -4.55
117.0707 -4.55
117.0998 -4.55
117.1327 -4.55
117.1636 -4.55
117.1955 -4.55
117.2242 -4.55
117.2575 -4.55
117.2862 -4.55
117.3147 -4.55
117.3418 -4.55
117.3705 -4.55
117.4036 -4.55
117.4326 -4.55
117.4619 -4.55
117.4953 -4.55
117.5261 -4.55
117.5547 -4.55
117.5866 -4.55
117.6173 -4.55
117.65 -4.55
117.6829 -4.55
117.7112 -4.55
117.74 -4.55
117.7708 -4.55
117.8029 -4.55
117.8349 -4.55
117.8635 -4.55
117.8931 -4.55
117.922 -4.55
117.9526 -4.55
117.9817 -4.55
118.015 -4.55
118.0479 -4.55
118.0813 -4.55
118.1139 -4.55
118.1449 -4.55
118.1782 -4.55
118.2079 -4.55
118.2394 -4.55
118.2712 -4.55
118.3045 -4.55
118.3378 -4.55
118.3695 -4.55
118.3998 -4.55
118.4278 -4.55
118.4557 -4.55
118.4858 -4.55
118.5162 -4.55
118.5495 -4.55
118.5828 -4.55
118.6129 -4.55
118.6443 -4.55
118.673 -4.55
118.7008 -4.55
118.7342 -4.55
118.7632 -4.55
118.7914 -4.55
118.8196 -4.55
118.8524 -4.55
118.883 -4.55
118.9162 -4.55
118.9454 -4.55
118.9787 -4.55
119.0099 -4.55
119.039 -4.55
119.0704 -4.55
119.1022 -4.55
119.1346 -4.55
119.1637 -4.55
119.1919 -4.55
119.2211 -4.55
119.2518 -4.55
119.2802 -4.55
119.308 -4.8
119.3384 -4.8
119.3717 -5.85
119.405 -6.95
119.4326 -6.95
119.465 -7.4
119.4983 -7.4
119.5316 -7.4
119.5607 -7.4
119.5941 -7.2
119.6244 -7.2
119.6552 -7.2
119.6846 -7.2
119.7169 -7.2
119.7458 -7.2
119.7779 -7.2
119.8112 -6.95
119.8415 -6.1
119.8704 -6.1
119.9037 -5.2
119.9332 -5.2
119.9642 -4.35
119.9939 -4.15
120.0229 -4.15
120.0546 -4.15
120.0871 -4.15
120.1165 -4.15
120.1484 -4.15
120.1784 -4.15
120.2118 -4.15
120.2441 -4.15
120.2725 -4.15
120.3008 -4.15
120.3341 -4.15
120.3662 -4.15
120.3976 -4.15
120.4249 -4.15
120.4573 -4.15
120.4889 -4.15
120.517 -4.15
120.5438 -4.15
120.5744 -4.15
120.6077 -4.15
120.6368 -4.15
120.6702 -4.15
120.7035 -4.15
120.7368 -4.15
120.7648 -4.15
120.7943 -4.15
120.8248 -4.15
120.856 -4.15
120.8843 -4.15
120.9131 -4.15
120.9433 -4.15
120.9723 -4.15
121.003 -4.15
121.0348 -4.15
121.0681 -4.15
121.1014 -4.15
121.1303 -4.15
121.1636 -4.15
121.1936 -4.15
121.2232 -4.15
121.2516 -4.15
121.2834 -4.15
121.3135 -4.15
121.343 -4.15
121.373 -4.15
121.4028 -4.15
121.435 -4.15
121.466 -4.15
121.4939 -4.15
121.5262 -4.15
121.5543 -4.15
121.5836 -4.15
121.6126 -4.15
121.6404 -4.15
121.6702 -4.15
121.6999 -4.15
121.7317 -4.15
121.7601 -4.15
121.7929 -4.15
121.8263 -4.15
121.8566 -4.15
121.8858 -4.15
121.9191 -4.15
121.9501 -4.15
121.9797 -4.15
122.0131 -4.15
122.0421 -4.15
122.0721 -4.15
122.1012 -4.15
122.1277 -4.15
122.157 -4.15
122.1868 -4.15
122.2191 -4.15
122.248 -4.15
122.2776 -4.15
122.3085 -4.15
122.3371 -4.15
122.3701 -4.15
122.4012 -4.15
122.4339 -4.15
122.4644 -4.15
122.4948 -4.15
122.5282 -4.15
122.5615 -4.15
122.5893 -4.15
122.6176 -4.15
122.6488 -4.15
122.6809 -4.15
122.712 -4.15
122.7395 -4.15
122.7729 -4.15
122.8051 -4.15
122.8375 -4.15
122.8652 -4.15
122.8952 -4.15
122.9286 -4.15
122.9568 -4.15
122.9835 -4.15
123.0131 -4.15
123.0437 -4.15
123.0748 -4.15
123.1058 -4.15
123.134 -4.15
123.1641 -4.15
123.1931 -4.15
123.2206 -4.15
123.2518 -4.15
123.2806 -4.15
123.3101 -4.15
123.3434 -4.15
123.3757 -4.15
123.4087 -4.15
123.4405 -4.15
123.471 -4.15
123.502 -4.15
123.5354 -4.15
123.5646 -4.15
123.5922 -4.15
123.6241 -4.15
123.6546 -4.15
123.6861 -4.15
123.7153 -4.15
123.7453 -4.15
123.7785 -4.15
123.8119 -4.15
123.8389 -4.15
123.8709 -4.15
123.9019 -4.15
123.9322 -4.15
123.965 -4.15
123.9954 -4.15
124.0288 -4.15
124.0589 -4.15
124.0887 -4.15
124.1178 -4.15
124.1475 -4.15
124.1809 -4.15
124.2073 -4.15
124.2357 -4.15
124.2691 -4.15
124.2967 -4.15
124.3257 -4.15
124.3568 -4.15
124.3902 -4.15
124.4194 -4.15
124.4469 -4.15
124.4779 -4.15
124.5081 -4.15
124.5363 -4.15
124.563 -4.15
124.596 -4.15
124.6293 -4.15
124.6573 -4.15
124.6907 -4.15
124.724 -4.15
124.755 -4.15
124.7883 -4.15
124.8148 -4.15
124.8481 -4.15
124.8782 -4.15
124.9105 -4.15
124.9428 -4.15
124.9727 -4.15
125.0034 -4.15
125.0368 -4.15
125.0663 -4.15
125.0955 -4.15
125.1251 -4.15
125.1529 -4.15
125.1808 -4.15
125.2103 -4.15
125.2404 -4.15
125.2691 -4.15
125.296 -4.15
125.3255 -4.15
125.3541 -4.15
125.3839 -4.15
125.4154 -4.15
125.4485 -4.15
125.4819 -4.15
125.5095 -4.15
125.5428 -4.15
125.5761 -4.15
125.6095 -4.15
125.6369 -4.15
125.6643 -4.15
125.6941 -4.15
125.7273 -4.15
125.7592 -4.15
125.7869 -4.15
125.8151 -4.15
125.8452 -4.15
125.8777 -4.15
125.9036 -4.15
125.9325 -4.15
125.9659 -4.15
125.9952 -4.15
126.0271 -4.15
126.06 -4.15
126.0909 -4.15
126.1186 -4.15
126.1495 -4.15
126.1798 -4.15
126.2083 -4.15
126.2417 -4.15
126.27 -4.15
126.3014 -4.15
126.3347 -4.15
126.3675 -4.15
126.4008 -4.15
126.4316 -4.15
126.4605 -4.15
126.4883 -4.15
126.517 -4.15
126.5503 -4.15
126.5801 -4.15
126.6133 -4.15
126.6404 -4.15
126.6694 -4.15
126.7014 -4.15
126.7308 -4.15
126.7593 -4.15
126.7883 -4.35
126.8176 -4.35
126.8465 -4.8
126.8798 -5
126.9109 -5
126.9443 -5
126.9756 -5
127.0036 -5
127.0354 -5
127.0646 -5
127.0924 -5
127.1229 -5
127.1557 -5
127.1866 -5
127.2146 -5
127.2443 -5
127.2736 -5
127.3031 -5
127.3363 -5
127.3633 -5
127.3958 -5
127.4291 -5
127.4568 -5
127.4845 -5
127.5135 -5
127.5439 -5
127.5729 -5
127.6041 -4.8
127.6349 -4.35
127.6679 -4.35
127.7012 -4.15
127.7295 -3.9
127.7628 -3.9
127.793 -3.9
127.8214 -3.9
127.8482 -3.9
127.8773 -3.7
127.9062 -3.7
127.9377 -3.05
127.971 -3.05
128.0041 -1.7
128.0341 -0.65
128.0636 -0.65
128.0922 0.85
128.1256 1.7
128.1543 1.7
128.1842 1.95
128.2176 1.95
128.2483 1.7
128.2775 1.3
128.3109 1.3
128.3401 0.4
128.3735 -1.5
128.4031 -1.5
128.4321 -2.8
128.4589 -2.8
128.4923 -3.9
128.5206 -4.55
128.5486 -4.55
128.5753 -4.8
128.6086 -4.8
128.6371 -4.8
128.6677 -4.8
128.6996 -4.8
128.7288 -5.45
128.7588 -5.45
128.7884 -6.3
128.8206 -7.85
128.854 -7.85
128.8861 -9.15
128.9188 -10
128.9496 -10
128.9805 -10.25
129.0106 -10.25
129.0417 -10.25
129.0702 -10
129.0998 -10
129.1326 -9.8
129.1646 -9.35
129.1979 -9.35
129.2286 -8.5
129.258 -8.5
129.2904 -7.4
129.3237 -6.1
129.3564 -6.1
129.388 -5.45
129.4172 -4.8
129.4449 -4.8
129.4741 -4.8
129.5074 -4.35
129.5373 -4.35
129.5661 -4.35
129.5947 -4.35
129.6241 -4.15
129.6565 -3.9
129.6834 -3.9
129.7125 -3.9
129.7428 -3.9
129.7715 -3.45
129.8011 -3.45
129.8344 -3.45
129.8642 -3.45
129.8938 -3.45
129.9225 -3.45
129.9516 -3.45
129.9822 -3.45
130.0116 -3.45
130.0416 -3.45
130.075 -3.45
130.1039 -3.45
130.1372 -3.45
130.1645 -3.45
130.1936 -3.45
130.2264 -3.45
130.2539 -3.45
130.281 -3.45
130.3143 -3.45
130.3464 -3.9
130.374 -3.9
130.4048 -4.35
130.4344 -4.35
130.4634 -4.8
130.4955 -4.8
130.5288 -4.8
130.558 -4.8
130.5913 -4.8
130.6189 -4.8
130.6488 -4.8
130.6788 -4.8
130.708 -4.8
130.7358 -4.8
130.7638 -4.8
130.7944 -4.8
130.825 -4.8
130.8562 -4.8
130.8845 -4.8
130.9144 -4.8
130.9438 -4.8
130.9724 -4.8
131.0054 -4.8
131.0386 -4.8
131.0674 -4.8
131.0972 -4.8
131.1253 -4.8
131.1573 -4.8
131.1876 -4.8
131.2207 -4.8
131.2475 -4.8
131.2771 -4.8
131.3074 -4.8
131.3366 -4.8
131.3635 -4.8
131.3968 -4.8
131.4272 -4.8
131.4558 -4.8
131.489 -4.8
131.5203 -4.8
131.5537 -4.8
131.5822 -4.8
131.6097 -4.8
131.6412 -4.8
131.671 -4.8
131.7038 -4.8
131.7322 -4.8
131.7615 -4.8
131.7949 -4.55
131.8236 -4.55
131.8519 -4.55
131.8818 -4.55
131.9123 -4.55
131.9422 -4.55
131.9699 -4.55
131.9996 -4.55
132.0284 -4.55
132.056 -4.55
132.0844 -4.55
132.1177 -4.55
132.151 -4.55
132.1844 -4.55
132.2159 -4.55
132.2492 -4.55
132.2798 -4.55
132.3084 -4.55
132.3356 -4.55
132.3645 -4.55
132.395 -4.55
132.425 -4.55
132.4539 -4.55
132.4839 -4.55
132.5143 -4.55
132.5476 -4.55
132.5805 -4.55
132.6138 -4.55
132.6422 -4.55
132.6706 -4.55
132.6991 -4.55
132.7305 -4.55
132.7595 -4.55
132.7892 -4.55
132.8164 -4.55
132.8491 -4.55
132.8799 -4.55
132.909 -4.55
132.9384 -4.55
132.9717 -4.55
133.0051 -4.55
133.0344 -4.55
133.0675 -4.55
133.0997 -4.55
133.1301 -4.55
133.1591 -4.55
133.1881 -4.55
133.2215 -4.55
133.2505 -4.55
133.278 -4.55
133.3113 -4.55
133.344 -4.55
133.3726 -4.55
133.4052 -4.55
133.4336 -4.55
133.463 -4.55
133.4918 -4.55
133.5221 -4.55
133.5496 -4.55
133.5813 -4.55
133.6141 -4.55
133.6424 -4.55
133.67 -4.55
133.7008 -4.55
133.7304 -4.55
133.7638 -4.55
133.7912 -4.55
133.8227 -4.55
133.8514 -4.55
133.8794 -4.55
133.9076 -4.55
133.9363 -4.55
133.9696 -4.55
133.9984 -4.55
134.0297 -4.55
134.063 -4.55
134.0932 -4.55
134.1219 -4.55
134.1527 -4.55
134.182 -4.55
134.2152 -4.55
134.2485 -4.55
134.276 -4.55
134.3094 -4.55
134.3372 -4.55
134.365 -4.55
134.3963 -4.55
134.4296 -4.55
134.4584 -4.55
134.4887 -4.55
134.5173 -4.55
134.5473 -4.55
134.5781 -4.55
134.608 -4.55
134.6414 -4.55
134.6701 -4.55
134.7034 -4.55
134.7368 -4.55
134.7667 -4.55
134.795 -4.55
134.8232 -4.55
134.8533 -4.55
134.8828 -4.55
134.9162 -4.55
134.9458 -4.55
134.9754 -4.55
135.0032 -4.55
135.0365 -4.55
135.0699 -4.55
135.0978 -4.55
135.1267 -4.55
135.1591 -4.55
135.1925 -4.55
135.2228 -4.55
135.2526 -4.55
135.2846 -4.55
135.3164 -4.55
135.3452 -4.55
135.3786 -4.55
135.4119 -4.55
135.4404 -4.55
135.4709 -4.55
135.4979 -4.55
135.5312 -4.55
135.562 -4.55
135.5902 -4.55
135.6182 -4.55
135.6515 -4.55
135.6849 -4.55
135.7159 -4.55
135.7485 -4.55
135.7809 -4.55
135.8092 -4.55
135.8392 -4.55
135.8725 -4.55
135.9026 -4.55
135.9338 -4.55
135.9614 -4.55
135.9904 -4.55
136.0214 -4.55
136.0547 -4.55
136.0872 -4.55
136.1206 -4.55
136.1539 -4.55
136.1824 -4.55
136.2111 -4.55
136.2431 -4.55
136.2723 -4.55
136.3056 -4.55
136.3349 -4.55
136.367 -4.55
136.397 -4.55
136.4259 -4.55
136.458 -4.55
136.4872 -4.55
136.5161 -4.55
136.5457 -4.55
136.5758 -4.55
136.604 -4.55
136.6373 -4.55
136.6706 -4.55
136.6979 -4.55
136.725 -4.55
136.7545 -4.55
136.7866 -4.55
136.8168 -4.55
136.8448 -4.55
136.8749 -4.55
136.9034 -4.55
136.9324 -4.55
136.9598 -4.55
136.9896 -4.55
137.0183 -4.55
137.0489 -4.55
137.0823 -4.55
137.1114 -4.55
137.1423 -4.55
137.1711 -4.55
137.1983 -4.55
137.2288 -4.55
137.259 -4.55
137.2885 -4.55
137.3176 -4.55
137.348 -4.55
137.3779 -4.55
137.4081 -4.55
137.4389 -4.55
137.4718 -4.55
137.5011 -4.55
137.5293 -4.55
137.5578 -4.55
137.588 -4.55
137.6199 -4.55
137.6496 -4.55
137.6774 -4.55
137.7107 -4.55
137.7392 -4.55
137.7673 -4.55
137.7957 -4.55
137.8251 -4.55
137.8585 -4.55
137.8918 -4.55
137.9188 -4.55
137.9482 -4.55
137.9772 -4.55
138.0095 -4.55
138.0363 -4.55
138.0658 -4.55
138.0991 -4.55
138.131 -4.55
138.1601 -4.55
138.1929 -4.55
138.2256 -4.55
138.2589 -4.55
138.2886 -4.55
138.3215 -4.55
138.3509 -4.55
138.3793 -4.55
138.4075 -4.55
138.4387 -4.55
138.4681 -4.55
138.499 -4.55
138.5271 -4.55
138.5604 -4.55
138.5893 -4.55
138.6225 -4.55
138.6513 -4.55
138.6807 -4.55
138.7141 -4.55
138.7452 -4.55
138.7757 -4.55
138.809 -4.55
138.8423 -4.55
138.8712 -4.55
138.9046 -4.55
138.9341 -4.55
138.9668 -4.55
138.9951 -4.55
139.027 -4.55
139.0592 -4.55
139.0876 -4.55
139.1199 -4.55
139.1483 -4.55
139.1785 -4.55
139.2072 -4.55
139.2373 -4.55
139.2653 -4.55
139.2963 -4.55
139.3277 -4.55
139.3574 -4.55
139.3851 -4.55
139.4166 -4.55
139.445 -4.55
139.4738 -4.55
139.5012 -4.55
139.5312 -4.55
139.5623 -4.55
139.5912 -4.55
139.6184 -4.55
139.6471 -4.55
139.6783 -4.55
139.7082 -4.55
139.7416 -4.55
139.7749 -4.55
139.8051 -4.55
139.8378 -4.55
139.8667 -4.55
139.8978 -4.55
139.9285 -4.55
139.9616 -4.55
139.9932 -4.55
140.0217 -4.55
140.0537 -4.55
140.0836 -4.55
140.1138 -4.55
140.1434 -4.55
140.1724 -4.55
140.202 -4.55
140.2314 -4.55
140.2613 -4.55
140.293 -4.55
140.3229 -4.55
140.3563 -4.55
140.3884 -4.55
140.4217 -4.55
140.4521 -4.55
140.4855 -4.35
140.516 -4.35
140.5448 -3.9
140.5726 -3.9
140.6005 -3.7
140.6339 -3.45
140.6663 -3.45
140.695 -3.45
140.7235 -3.45
140.7567 -3.45
140.7901 -3.45
140.8192 -3.45
140.8484 -3.45
140.8783 -3.45
140.9116 -3.45
140.941 -3.45
140.9677 -3.45
140.997 -3.45
141.0279 -3.45
141.0602 -3.45
141.0869 -3.45
141.118 -3.45
141.1466 -3.45
141.1751 -3.45
141.203 -3.45
141.2317 -3.45
141.2639 -3.45
141.2954 -3.7
141.3284 -3.7
141.3618 -3.7
141.3951 -3.7
141.427 -3.7
141.4538 -3.7
141.4872 -3.7
141.517 -3.7
141.5458 -3.7
141.5754 -3.7
141.6055 -3.7
141.6339 -3.7
141.6672 -3.7
141.6971 -3.7
141.7258 -3.7
141.7546 -3.7
141.782 -3.45
141.8153 -3.45
141.8452 -3.45
141.8752 -3.45
141.9066 -3.45
141.9351 -3.45
141.9652 -3.45
141.9986 -3.45
142.0284 -3.45
142.0557 -3.45
142.0876 -3.45
142.117 -3.45
142.1504 -3.45
142.178 -3.45
142.2073 -3.45
142.2381 -3.45
142.2707 -3.45
142.2978 -3.45
142.3262 -3.45
142.3594 -3.45
142.3882 -3.45
142.415 -3.45
142.4484 -3.45
142.4815 -3.45
142.5117 -3.45
142.5426 -3.45
142.5741 -3.45
142.6033 -3.45
142.6311 -3.45
142.6611 -3.45
142.6928 -3.45
142.7262 -3.45
142.7543 -3.45
142.7842 -3.45
142.8146 -3.45
142.8473 -3.45
142.8772 -3.45
142.9075 -3.45
142.9408 -3.45
142.9741 -3.45
143.0034 -3.45
143.0368 -3.45
143.0653 -3.45
143.0986 -3.45
143.127 -3.45
143.1603 -3.45
143.1897 -3.45
143.2209 -3.45
143.2543 -3.45
143.2823 -3.45
143.3111 -3.45
143.3429 -3.45
143.3736 -3.45
143.4006 -3.45
143.4303 -3.45
143.4601 -3.45
143.491 -3.45
143.5207 -3.45
143.554 -3.45
143.584 -3.45
143.6156 -3.45
143.6474 -3.45
143.6761 -3.45
143.7058 -3.45
143.7342 -3.45
143.761 -3.45
143.7916 -3.45
143.825 -3.45
143.8526 -3.45
143.881 -3.45
143.9128 -3.45
143.9453 -3.45
143.9736 -3.45
144.0007 -3.45
144.0341 -3.45
144.0657 -3.45
144.0953 -3.45
144.1272 -3.45
144.1606 -3.45
144.1895 -3.45
144.2186 -3.45
144.246 -3.45
144.2783 -3.45
144.3085 -3.45
144.3363 -3.45
144.3642 -3.45
144.3975 -3.45
144.4265 -3.45
144.4599 -3.45
144.4909 -3.45
144.5193 -3.45
144.5511 -3.45
144.5812 -3.45
144.6122 -3.45
144.6415 -3.45
144.6748 -3.45
144.7048 -3.45
144.7332 -3.45
144.7633 -3.45
144.7947 -3.7
144.828 -3.7
144.8561 -3.9
144.8858 -3.9
144.9162 -4.35
144.9435 -5
144.9708 -5
145.0009 -5
145.03 -5
145.0595 -5
145.0881 -5
145.1209 -5
145.1542 -5
145.1845 -5
145.2116 -5
145.2409 -4.8
145.2713 -4.8
145.2992 -4.35
145.3278 -4.35
145.3599 -3.7
145.3922 -3.25
145.4217 -3.25
145.451 -3.25
145.4811 -3.25
145.5145 -3.25
145.5446 -3.25
145.5738 -3.25
145.6021 -3.25
145.6307 -3.25
145.6591 -3.25
145.6894 -3.25
145.7226 -3.25
145.7558 -3.25
145.7863 -3.25
145.8153 -3.25
145.8455 -3.25
145.8752 -3.25
145.9034 -3.25
145.933 -3.25
145.9649 -3.25
145.9982 -3.25
146.0316 -3.25
146.062 -3.25
146.0924 -3.25
146.1231 -3.25
146.1524 -3.25
146.1838 -3.25
146.2163 -3.25
146.245 -3.25
146.2729 -3.25
146.306 -3.25
146.3393 -3.25
146.3727 -3.25
146.406 -3.25
146.4388 -3.25
146.4722 -3.25
146.5019 -3.25
146.532 -3.25
146.5594 -3.25
146.5928 -3.25
146.6216 -3.25
146.6505 -3.25
146.6787 -3.25
146.7105 -3.25
146.7404 -3.25
146.7694 -3.25
146.7972 -3.25
146.8277 -3.25
146.8592 -3.25
146.8874 -3.25
146.9173 -3.25
146.9484 -3.25
146.9816 -3.25
147.0096 -3.25
147.0429 -3.25
147.0742 -3.25
147.1043 -3.25
147.1333 -3.25
147.1613 -3.25
147.1933 -3.25
147.2267 -3.25
147.2567 -3.25
147.2841 -3.25
147.3141 -3.25
147.3475 -3.25
147.3777 -3.25
147.4045 -3.25
147.4336 -3.25
147.463 -3.25
147.4917 -3.25
147.5193 -2.8
147.5506 -2.8
147.5791 -2.4
147.6071 -1.95
147.6362 -1.95
147.6677 -1.5
147.7004 -1.5
147.731 -1.3
147.7636 -1.3
147.7953 -1.3
147.8282 -1.3
147.8557 -1.3
147.8822 -1.3
147.9111 -1.3
147.9412 -1.3
147.9693 -1.3
147.9991 -1.3
148.0324 -1.3
148.0658 -1.3
148.0979 -1.3
148.1283 -1.3
148.1581 -1.3
148.188 -1.3
148.2206 -1.3
148.2481 -1.3
148.2806 -0.85
148.31 -0.2
148.3414 -0.2
148.3696 0.2
148.4007 0.2
148.434 0.2
148.4612 0.2
148.4886 0.2
148.5168 0.2
148.5465 0.2
148.574 0.2
148.6012 0.2
148.6345 0.2
148.6651 0.2
148.6962 0.2
148.7247 0.2
148.755 0.2
148.7855 0.2
148.8137 0.2
148.842 0.2
148.8711 0.2
148.8994 0.2
148.9288 0.2
148.9566 0.4
148.987 0.4
149.0179 1.3
149.0483 2.15
149.0756 2.15
149.1069 3.05
149.1397 3.05
149.1723 3.25
149.2013 3.45
149.2334 3.45
149.264 3.45
149.2926 3.45
149.3259 3.45
149.3593 3.45
149.3916 3.45
149.4249 3.45
149.4519 3.45
149.4842 3.25
149.5176 2.8
149.5458 2.8
149.574 1.5
149.6034 1.5
149.6319 0.4
149.6603 0.4
149.6924 -0.85
149.7208 -1.05
149.7505 -1.05
149.7817 -1.05
149.8085 -1.05
149.8418 -1.05
149.8751 -1.05
149.9048 -1.05
149.9311 -1.05
149.9619 -1.05
149.9942 -1.05
150.0276 -0.85
150.0568 -0.65
150.0851 -0.65
150.1184 0
150.1491 0
150.1824 1.05
150.2145 1.7
150.2439 1.7
150.2725 2.15
150.3 2.15
150.3333 2.15
150.3624 2.15
150.391 2.15
150.4215 2.15
150.4548 2.15
150.4881 2.15
150.5215 2.15
150.5521 2.15
150.5818 2.15
150.6114 2.15
150.6447 2.15
150.6768 2.15
150.7069 2.15
150.7402 1.95
150.7717 1.95
150.8051 1.3
150.8353 0.85
150.8686 0.85
150.9002 0.65
150.931 0.65
150.9644 0.65
150.9936 0.65
151.0226 0.65
151.05 0.65
151.0822 0.65
151.1155 0.65
151.1446 0.65
151.172 0.65
151.2027 0.65
151.2332 0.65
151.2665 0.65
151.2998 0.65
151.3332 0.65
151.3665 0.65
151.3998 0.65
151.4332 0.65
151.4626 0.65
151.4924 0.65
151.5244 0.85
151.5578 0.85
151.5911 1.05
151.6199 1.3
151.6497 1.3
151.6796 1.5
151.7129 1.7
151.7463 1.7
151.7752 1.95
151.8085 1.95
151.8419 1.95
151.8752 1.95
151.9085 2.15
151.9371 2.15
151.967 2.4
151.9969 2.6
152.0281 2.6
152.0615 2.6
152.0948 3.05
152.125 3.05
152.1527 3.05
152.1801 3.05
152.2134 3.45
152.2426 4.15
152.2711 4.15
152.3004 6.3
152.3323 6.3
152.3656 10.45
152.399 13.3
152.4281 13.3
152.4574 15.25
152.4887 16.15
152.5221 16.15
152.5554 16.35
152.5856 17
152.6138 17
152.6431 17.65
152.6764 19
152.7045 19
152.7378 20.05
152.7681 20.05
152.7954 20.95
152.8288 21.8
152.862 21.8
152.8934 22.7
152.9207 22.7
152.9503 23.35
152.9836 24.2
153.0169 24.9
153.0455 24.9
153.0789 25.55
153.1098 25.55
153.1431 25.95
153.1697 26.65
153.2001 26.65
153.2309 27.5
153.2642 29.25
153.2975 29.25
153.3277 31.2
153.3598 32.95
153.3887 32.95
153.4217 34.7
153.455 34.7
153.4883 37.35
153.5176 39.1
153.5459 39.1
153.5792 41.05
153.6125 43.65
153.6444 43.65
153.6731 45.4
153.7031 45.4
153.7364 47.6
153.7698 49.35
153.7984 51.95
153.8268 51.95
153.8571 53.95
153.8898 53.95
153.922 56.75
153.9535 58.95
153.9825 58.95
154.0139 61.6
154.0404 61.6
154.0737 64.4
154.1071 66.4
154.1354 66.4
154.1626 68.35
154.196 69.45
154.2293 69.9
154.2576 69.9
154.2855 69.9
154.3169 69.9
154.3461 69.9
154.3794 69.9
154.4128 69.9
154.4415 69.9
154.4718 69.9
154.5014 69.9
154.5347 69.9
154.5669 69.9
154.6003 69.9
154.6314 69.9
154.6601 69.9
154.6934 69.9
154.7267 69.9
154.7601 69.9
154.7865 69.9
154.8167 69.9
154.85 69.9
154.8821 69.9
154.9138 69.9
154.9433 69.9
154.9727 69.9
155.0056 69.9
155.0322 69.9
155.0638 69.9
155.0972 69.9
155.1262 69.9
155.1595 69.9
155.1921 69.9
155.2254 69.9
155.2569 69.9
155.2881 69.9
155.3215 69.65
155.3536 69.45
155.3847 69.45
155.4129 69
155.4418 69
155.4752 68.8
155.5036 68.55
155.5318 68.55
155.5651 68.35
155.5961 67.7
155.6295 67.7
155.6568 67.05
155.6889 66.4
155.7178 66.4
155.7461 65.5
155.7794 64.65
155.8112 64.65
155.8444 63.55
155.8768 63.55
155.9043 62
155.9376 58.3
155.971 58.3
155.998 54.6
156.0258 50.65
156.056 50.65
156.0894 44.1
156.1199 38.85
156.1488 38.85
156.1805 31
156.2138 31
156.2471 24.9
156.2804 15.9
156.311 15.9
156.3396 11.1
156.3684 6.55
156.4016 6.55
156.4326 3.7
156.4659 1.7
156.4942 1.7
156.5235 -0.2
156.5568 -0.2
156.5898 -1.95
156.6227 -3.25
156.6557 -3.25
156.6858 -5.85
156.7192 -8.3
156.7502 -8.3
156.7788 -11.35
156.8085 -13.95
156.8396 -13.95
156.873 -15.7
156.9002 -17.65
156.9299 -17.65
156.9588 -19.4
156.9921 -19.4
157.0247 -21.6
157.0581 -24
157.0867 -24
157.1184 -26.85
157.1492 -29.7
157.1826 -29.7
157.2109 -33.4
157.2412 -33.4
157.2675 -37.35
157.299 -40.6
157.3324 -40.6
157.3657 -44.3
157.3961 -46.7
157.4289 -46.7
157.459 -49.35
157.4923 -52.2
157.5203 -52.2
157.5488 -54.15
157.5792 -54.15
157.6077 -55.45
157.641 -58.3
157.6701 -58.3
157.7001 -61.15
157.7289 -62.45
157.7594 -62.45
157.7927 -63.55
157.8247 -64.2
157.8573 -64.2
157.8854 -64.2
157.9168 -64.2
157.9501 -64.2
157.981 -64.2
158.0091 -64.2
158.0392 -63.75
158.0701 -63.75
158.1034 -61.8
158.1309 -59.4
158.1591 -59.4
158.1924 -57.2
158.2199 -54.35
158.252 -54.35
158.2802 -50.85
158.3114 -50.85
158.3393 -47.6
158.3677 -42.35
158.3969 -42.35
158.4302 -37.1
158.46 -30.55
158.4933 -30.55
158.5266 -23.8
158.56 -17.45
158.5933 -17.45
158.622 -8.7
158.6537 1.3
158.6836 1.3
158.7123 9.6
158.7456 9.6
158.7754 16.6
158.8065 20.95
158.8352 20.95
158.8646 25.3
158.8979 30.8
158.9301 30.8
158.9632 36.45
158.9937 46.5
159.0231 46.5
159.0565 57.2
159.0841 57.2
159.1122 64.4
159.1414 70.3
159.1721 70.3
159.2054 73.6
159.2324 73.6
159.2647 78.85
159.296 86.5
159.325 86.5
159.3583 93.7
159.3916 98.5
159.4206 98.5
159.4491 104.15
159.4802 104.15
159.5135 108.55
159.5438 114.2
159.5771 114.2
159.6064 119.45
159.6376 123.85
159.671 123.85
159.7022 128.85
159.7303 133.45
159.7593 133.45
159.7896 140.2
159.8229 146.35
159.8525 146.35
159.8859 150.7
159.9152 150.7
159.9439 154.65
159.9772 159
160.0078 159
160.0362 162.05
160.066 163.8
160.0993 163.8
160.1326 164.05
160.1624 164.05
160.1923 164.05
160.2203 164.05
160.2505 164.05
160.2838 164.05
160.3128 164.05
160.3414 164.05
160.3707 164.05
160.404 164.05
160.4373 164.05
160.4665 164.05
160.4976 164.05
160.5301 164.05
160.5634 163.8
160.5967 163.8
160.6301 163.8
160.6597 163.8
160.693 162.3
160.7224 162.3
160.7557 158.35
160.7848 148.95
160.8154 148.95
160.8443 139.55
160.8749 139.55
160.9082 127.1
160.9381 112.05
160.9652 112.05
160.9945 96.3
161.0259 81.9
161.0593 81.9
161.0876 61.6
161.1209 61.6
161.1499 42.15
161.1779 29.9
161.2112 29.9
161.2445 16.35
161.2732 5.2
161.3012 5.2
161.33 -3.9
161.3633 -3.9
161.3926 -12.65
161.4257 -19.85
161.4575 -19.85
161.4909 -28.35
161.5242 -34.95
161.5575 -43
161.5858 -43
161.6158 -48.7
161.6447 -48.7
161.678 -55.45
161.7065 -59.85
161.7388 -59.85
161.7692 -69.2
161.799 -69.2
161.8323 -81
161.8649 -98.95
161.8933 -98.95
161.9232 -112.7
161.9517 -127.55
161.985 -127.55
162.0152 -134.1
162.0464 -134.1
162.0738 -147.85
162.1067 -159.9
162.14 -168.4
162.1725 -168.4
162.1996 -179.55
162.2328 -179.55
162.2644 -190.7
162.2977 -200.75
162.3255 -200.75
162.3547 -208.15
162.384 -208.15
162.4119 -217.1
162.4452 -218.4
162.4774 -218.4
162.5108 -218.4
162.5377 -218.4
162.5658 -218.4
162.5991 -218.4
162.6324 -218.4
162.6658 -218.4
162.6945 -218.4
162.7246 -218.4
162.7579 -218.4
162.7883 -218.4
162.8155 -218.4
162.8488 -218.4
162.8796 -218.4
162.9129 -218.4
162.9401 -218.4
162.9719 -218.4
163.0052 -218.4
163.0352 -218.4
163.0686 -218.4
163.1019 -218.4
163.1327 -218.4
163.1614 -218.4
163.1897 -218.4
163.2231 -218.4
163.2529 -218.4
163.2827 -218.4
163.3158 -218.4
163.3445 -218.4
163.3778 -218.4
163.4066 -218.4
163.4344 -218.4
163.4677 -218.4
163.499 -218.4
163.5323 -218.4
163.5598 -218.4
163.5895 -218.4
163.6197 -218.4
163.6531 -218.4
163.6864 -218.4
163.7183 -218.4
163.7517 -218.4
163.7806 -218.4
163.8096 -218.4
163.843 -218.4
163.8731 -218.4
163.9003 -218.4
163.9291 -218.4
163.9599 -218.4
163.9933 -218.4
164.0248 -218.4
164.0558 -218.4
164.0859 -218.4
164.1192 -218.4
164.1526 -218.4
164.1806 -218.4
164.2119 -218.4
164.2416 -218.4
164.2721 -218.4
164.3055 -218.4
164.3388 -218.4
164.3686 -218.4
164.3968 -218.4
164.4237 -218.4
164.457 -218.4
164.4892 -218.4
164.5172 -218.4
164.5471 -218.4
164.5798 -218.4
164.6131 -218.4
164.6465 -218.4
164.6761 -218.4
164.7094 -218.4
164.7424 -218.4
164.7757 -218.4
164.805 -218.4
164.836 -218.4
164.8645 -218.4
164.893 -218.4
164.9263 -218.4
164.9559 -218.4
164.9843 -218.4
165.0126 -218.4
165.0446 -218.4
165.0779 -218.4
165.1095 -218.4
165.1376 -218.4
165.165 -218.4
165.1966 -218.4
165.2299 -218.4
165.2598 -218.4
165.2885 -218.4
165.3218 -218.4
165.3522 -218.4
165.3856 -218.4
165.4175 -218.4
165.4468 -218.4
165.4752 -218.4
165.5047 -218.4
165.538 -218.4
165.5678 -218.4
165.5975 -218.4
165.625 -218.4
165.6558 -217.1
165.6891 -217.1
165.7216 -215.8
165.7539 -212.75
165.7821 -212.75
165.8141 -208.6
165.8474 -204.2
165.8765 -204.2
165.9055 -199.85
165.9384 -193.1
165.9706 -193.1
166.0039 -185.85
166.0342 -185.85
166.0626 -182.15
166.0949 -181.3
166.1283 -181.3
166.1609 -180.4
166.1924 -180
166.2246 -180
166.254 -180
166.287 -180.4
166.3203 -180.4
166.3504 -180.85
166.3837 -181.95
166.414 -181.95
166.4465 -183.05
166.4799 -183.05
166.5077 -183.05
166.5364 -183.05
166.5668 -183.05
166.5978 -183.05
166.6311 -183.05
166.6577 -183.05
166.6868 -183.05
166.7171 -183.05
166.7505 -183.05
166.7838 -182.6
166.8147 -181.7
166.8451 -181.7
166.8739 -180.85
166.9025 -180.85
166.9358 -179.75
166.965 -179.1
166.996 -179.1
167.0254 -177.35
167.0547 -177.35
167.088 -175.4
167.1164 -172.35
167.1497 -172.35
167.1821 -169.5
167.2138 -166
167.2471 -164.45
167.2743 -164.45
167.3036 -163.6
167.337 -163.6
167.367 -163.35
167.4003 -163.35
167.4337 -163.35
167.4644 -163.8
167.4937 -164.7
167.5223 -164.7
167.5556 -165.55
167.5877 -166
167.6153 -166
167.6432 -166.2
167.6737 -166.2
167.707 -166.2
167.7403 -166.2
167.7726 -166.2
167.8059 -166
167.8376 -164.45
167.8709 -164.45
167.9043 -160.95
167.9376 -157.9
167.966 -157.9
167.9941 -152.45
168.0275 -149.6
168.0608 -149.6
168.0905 -145.9
168.1208 -142.4
168.1478 -142.4
168.1811 -139.35
168.2143 -139.35
168.2475 -136.95
168.2765 -134.3
168.3077 -134.3
168.341 -132.8
168.3736 -132.8
168.4023 -132.8
168.4356 -132.55
168.469 -131.7
168.5023 -131.7
168.53 -130.15
168.5591 -127.75
168.5888 -127.75
168.6181 -125.15
168.6515 -123.2
168.6823 -123.2
168.7157 -119.9
168.749 -116.85
168.7769 -116.85
168.8103 -111.4
168.8436 -105.7
168.8751 -105.7
168.9031 -101.1
168.9319 -101.1
168.9652 -97.85
168.9986 -92.15
169.0276 -92.15
169.061 -85.8
169.0943 -77.1
169.1277 -67.5
169.1569 -67.5
169.1903 -56.55
169.2209 -56.55
169.2506 -47.8
169.284 -36
169.3128 -36
169.3461 -25.1
169.3756 -18.75
169.4066 -18.75
169.4399 -15.05
169.4714 -14.4
169.501 -14.4
169.5289 -15.25
169.5583 -15.25
169.5917 -17.65
169.6207 -18.55
169.6507 -18.55
169.6837 -18.1
169.713 -13.95
169.7464 -13.95
169.7737 -5.2
169.8035 -5.2
169.8342 4.55
169.8643 14.15
169.8977 14.15
169.931 19
169.9633 23.35
169.9939 23.35
170.0253 31.65
170.0587 38
170.0874 38
170.116 44.55
170.1469 44.55
170.1774 49.15
170.2107 55.9
170.2414 55.9
170.2748 61.35
170.3033 67.9
170.3343 67.9
170.3676 74.05
170.3964 79.05
170.4264 79.05
170.4561 87.55
170.4868 87.55
170.5201 94.15
170.5512 102.65
170.5838 102.65
170.6136 108.75
170.6416 116.65
170.6749 116.65
170.7039 119.9
170.7372 123.4
170.7668 123.4
170.7992 129.1
170.8325 134.1
170.861 134.1
170.8913 138.7
170.9201 138.7
170.9487 143.05
170.982 144.8
171.0104 144.8
171.0424 146.1
171.0758 147.2
171.106 147.2
171.1394 148.1
171.1727 148.75
171.2057 148.75
171.2358 148.75
171.2652 148.75
171.2985 148.75
171.3278 148.75
171.3563 148.75
171.384 148.75
171.412 148.75
171.4453 148.75
171.4787 148.75
171.5061 148.75
171.5353 148.75
171.5639 148.75
171.5945 148.75
171.6278 148.75
171.6594 148.75
171.6877 148.75
171.721 148.75
171.7519 148.75
171.7852 148.5
171.8186 148.5
171.8467 148.5
171.8744 148.1
171.9046 147.65
171.938 147.65
171.9687 147.2
171.9982 147.2
172.0266 147
172.0592 146.75
172.0925 146.75
172.1259 146.75
172.1575 146.75
172.1861 146.75
172.2195 146.75
172.2528 146.75
172.2816 146.75
172.3099 146.75
172.3379 146.75
172.3653 146.75
172.3987 146.75
172.4288 146.75
172.4572 146.75
172.4874 146.75
172.5166 146.75
172.5499 146.75
172.5797 146.75
172.6061 146.75
172.6356 146.75
172.6689 146.75
172.7023 146.75
172.7342 146.75
172.7675 146.75
172.7973 146.75
172.8264 146.75
172.8595 146.75
172.8875 146.75
172.9171 146.75
172.9505 146.75
172.9776 146.75
173.011 146.75
173.0393 146.75
173.0718 146.75
173.1003 146.75
173.1336 146.75
173.167 146.75
173.2003 146.75
173.2293 146.75
173.259 146.75
173.2894 146.75
173.3228 147
173.3537 147
173.384 147
173.4173 147
173.4453 147
173.4775 147
173.5084 147
173.5375 147
173.5655 146.75
173.5935 144.35
173.6235 144.35
173.6568 141.1
173.6902 128
173.7231 128
173.7534 110.5
173.784 93.25
173.8173 93.25
173.8456 80.6
173.879 55.7
173.9081 55.7
173.9371 42.15
173.9705 42.15
174.0028 25.75
174.0361 10.7
174.0646 10.7
174.0926 -7.4
174.1259 -21.6
174.1562 -21.6
174.184 -29.9
174.2173 -29.9
174.2496 -33.85
174.2829 -36.25
174.3163 -36.9
174.3465 -36.9
174.3761 -42.35
174.4062 -42.35
174.4396 -49.15
174.4701 -58.5
174.5033 -58.5
174.5355 -67.9
174.5633 -77.5
174.5966 -77.5
174.6268 -86.9
174.6575 -94.15
174.6877 -94.15
174.7172 -102
174.7505 -108.75
174.7827 -108.75
174.8106 -114
174.8373 -114
174.8678 -120.8
174.9012 -128
174.9345 -128
174.9649 -135.2
174.9933 -142.4
175.0233 -142.4
175.0565 -148.3
175.0842 -148.3
175.1157 -155.95
175.1446 -162.7
175.1779 -162.7
175.2111 -167.75
175.2424 -174.1
175.2735 -174.1
175.3053 -179.75
175.3372 -185.65
175.3705 -185.65
175.3995 -190.45
175.4273 -196.6
175.4544 -196.6
175.4877 -202.7
175.5211 -208.15
175.549 -208.15
175.5783 -211.65
175.6069 -211.65
175.6402 -213.2
175.6736 -216.9
175.7006 -216.9
175.7297 -218.4
175.7585 -218.4
175.7862 -218.4
175.8195 -218.4
175.8529 -218.4
175.8834 -218.4
175.9161 -218.4
175.9437 -218.4
175.9771 -218.4
176.0104 -218.4
176.0422 -218.4
176.0696 -218.4
176.1029 -218.4
176.1362 -218.4
176.165 -218.4
176.1926 -218.4
176.2224 -218.4
176.2557 -218.4
176.2891 -218.4
176.3192 -218.4
176.3481 -218.4
176.3814 -218.4
176.4138 -218.4
176.4472 -218.4
176.4757 -218.4
176.5053 -218.4
176.5381 -218.4
176.5657 -218.4
176.5991 -218.4
176.6279 -218.4
176.6552 -218.4
176.6814 -218.4
176.7137 -218.4
176.747 -218.4
176.7804 -218.4
176.812 -218.4
176.8454 -218.4
176.8743 -218.4
176.9065 -218.4
176.9399 -218.4
176.9688 -218.4
176.9987 -218.4
177.0275 -218.4
177.0546 -218.4
177.088 -218.4
177.1172 -218.4
177.1477 -218.4
177.1783 -218.4
177.2104 -218.4
177.2437 -218.4
177.2708 -218.4
177.3022 -218.4
177.3355 -218.4
177.3689 -218.4
177.4022 -218.4
177.433 -218.4
177.4663 -218.4
177.4988 -218.4
177.5299 -218.4
177.5632 -218.4
177.5964 -218.4
177.6298 -218.4
177.6603 -218.4
177.6886 -218.4
177.7219 -218.4
177.7553 -218.4
177.7874 -218.4
177.8159 -218.4
177.8461 -218.4
177.8794 -218.4
177.908 -218.4
177.94 -218.4
177.969 -218.4
177.9998 -218.4
178.033 -218.4
178.0603 -218.4
178.0936 -218.4
178.127 -218.4
178.1603 -218.4
178.1931 -218.4
178.2247 -218.4
178.2534 -218.4
178.2823 -218.4
178.3107 -218.4
178.344 -218.4
178.3743 -218.2
178.4077 -218.2
178.441 -218.2
178.4702 -218.2
178.5036 -218.2
178.5316 -217.75
178.5599 -216.65
178.5882 -216.65
178.6176 -215.35
178.651 -215.35
178.6784 -212.3
178.707 -207.95
178.7396 -207.95
178.77 -201.4
178.8033 -201.4
178.8367 -192.45
178.8674 -184.15
178.8957 -184.15
178.9237 -173.65
178.957 -166.65
178.9904 -166.65
179.0228 -161.65
179.0528 -158.55
179.0862 -158.55
179.1195 -154.2
179.1467 -149.4
179.1787 -149.4
179.2088 -143.5
179.2375 -143.5
179.2708 -139.8
179.2979 -131.9
179.3288 -131.9
179.3587 -124.7
179.3875 -124.7
179.4208 -118.8
179.4541 -111.8
179.4846 -111.8
179.5145 -107
179.5471 -103.3
179.5805 -103.3
179.6138 -100.25
179.6443 -99.15
179.6745 -99.15
179.7047 -98.95
179.738 -96.55
179.7713 -96.55
179.7991 -91.95
179.8324 -86.9
179.8657 -86.9
179.8991 -79.25
179.9279 -72.5
179.9607 -72.5
179.9927 -65.05
180.0212 -55.7
180.0545 -55.7
180.0849 -46.7
180.1141 -46.7
180.1448 -40.15
180.1743 -36.9
180.2076 -36.9
180.2402 -35.8
180.27 -34.7
180.2971 -34.7
180.3298 -32.75
180.3632 -29.45
180.3902 -29.45
180.4179 -25.95
180.4491 -25.95
180.4781 -23.35
180.5114 -20.05
180.5437 -20.05
180.5732 -17.65
180.6046 -17.65
180.6355 -14.85
180.6689 -12.45
180.6979 -12.45
180.7301 -10
180.7592 -8.5
180.791 -8.5
180.8243 -7.6
180.855 -7.6
180.8852 -7.6
180.9143 -7.6
180.9464 -7.6
180.9797 -7.6
181.0088 -7.6
181.0367 -7.6
181.0645 -7.6
181.0962 -7.6
181.1296 -7.6
181.1629 -7.6
181.196 -7.6
181.2262 -7.6
181.2554 -7.6
181.2888 -7.6
181.3206 -7.6
181.3539 -7.6
181.3812 -7.6
181.4117 -7.6
181.445 -7.6
181.4745 -7.6
181.505 -7.6
181.5328 -7.6
181.5625 -7.6
181.5958 -7.6
181.6292 -7.6
181.661 -7.6
181.6916 -7.6
181.7198 -7.6
181.7531 -7.6
181.7805 -7.6
181.8127 -7.6
181.8425 -7.6
181.8725 -7.6
181.9058 -7.6
181.9349 -7.6
181.9683 -7.6
181.997 -7.6
182.0245 -7.6
182.0578 -7.6
182.0894 -7.6
182.1227 -7.6
182.1525 -7.6
182.1859 -7.6
182.2192 -7.6
182.2502 -7.6
182.2791 -7.6
182.3115 -7.6
182.3431 -7.6
182.3764 -7.6
182.4044 -7.6
182.4362 -7.6
182.4648 -7.6
182.4951 -7.6
182.5278 -7.6
182.5569 -7.6
182.5891 -7.6
182.617 -7.6
182.6438 -7.6
182.6743 -7.6
182.7076 -7.6
182.737 -7.6
182.7703 -7.6
182.8006 -7.6
182.8309 -7.6
182.8642 -7.6
182.8909 -7.6
182.921 -7.6
182.9539 -7.6
182.9845 -7.6
183.0169 -7.6
183.0482 -7.6
183.08 -7.6
183.1122 -7.6
183.1398 -7.6
183.1731 -7.6
183.2021 -7.6
183.2299 -7.6
183.26 -7.6
183.2934 -7.6
183.3267 -7.6
183.3563 -7.6
183.3896 -7.6
183.4189 -7.6
183.4481 -7.6
183.4814 -7.6
183.5097 -7.6
183.5384 -7.6
183.5669 -7.6
183.5998 -7.6
183.6331 -7.6
183.6665 -7.6
183.6967 -7.6
183.7292 -7.6
183.7625 -7.6
183.7959 -7.6
183.8292 -7.6
183.8613 -7.6
183.8927 -7.6
183.9236 -7.6
183.957 -7.6
183.9871 -7.6
184.0192 -7.6
184.0501 -7.6
184.0821 -7.6
184.1153 -7.6
184.1459 -7.6
184.1764 -7.6
184.2097 -7.6
184.2373 -7.6
184.2706 -7.6
184.304 -7.6
184.3373 -7.6
184.3665 -7.6
184.3935 -7.6
184.4269 -7.6
184.4569 -7.6
184.4852 -7.6
184.5175 -7.6
184.5502 -7.6
184.5835 -7.6
184.6142 -7.6
184.6436 -7.6
184.6769 -7.6
184.71 -7.6
184.7433 -7.6
184.7754 -7.6
184.8088 -7.6
184.8377 -7.6
184.8711 -7.6
184.9044 -7.6
184.9335 -7.6
184.9627 -7.6
184.9904 -7.6
185.0177 -7.6
185.0498 -7.6
185.0832 -7.6
185.112 -7.6
185.1401 -7.6
185.1689 -7.6
185.1986 -7.6
185.2319 -7.6
185.2594 -7.6
185.2909 -7.6
185.3242 -7.6
185.3549 -7.6
185.3883 -7.6
185.4216 -7.6
185.4549 -7.6
185.4837 -7.6
185.511 -7.6
185.5444 -7.6
185.5735 -7.6
185.6014 -7.6
185.6331 -7.6
185.6647 -7.6
185.698 -7.6
185.728 -7.6
185.7546 -7.6
185.7856 -7.6
185.819 -7.6
185.8519 -7.6
185.8828 -7.6
185.916 -7.6
185.9464 -7.6
185.9755 -7.6
186.0089 -7.6
186.0378 -7.6
186.0711 -7.6
186.1024 -7.6
186.1357 -7.6
186.169 -7.6
186.1977 -7.6
186.2251 -7.6
186.2524 -7.6
186.2809 -7.6
186.3118 -7.6
186.3451 -7.6
186.3759 -7.6
186.4093 -7.6
186.4391 -7.6
186.4679 -7.6
186.5009 -7.6
186.5342 -7.6
186.5676 -7.6
186.5978 -7.6
186.6256 -7.6
186.6589 -7.6
186.6879 -7.6
186.7209 -7.6
186.7483 -7.6
186.7784 -7.6
186.8117 -7.6
186.839 -7.6
186.869 -7.6
186.902 -7.6
186.9353 -7.6
186.9687 -7.6
186.9985 -7.6
187.0275 -7.6
187.0582 -7.6
187.0912 -7.6
187.1246 -7.6
187.1528 -7.6
187.1819 -7.6
187.2149 -7.6
187.2464 -7.6
187.2798 -7.6
187.309 -7.6
187.3412 -7.6
187.3687 -7.6
187.398 -7.6
187.4313 -7.6
187.4595 -7.6
187.4885 -7.6
187.5218 -7.6
187.5519 -7.6
187.5852 -7.6
187.6123 -7.6
187.6428 -7.6
187.6727 -7.6
187.7058 -7.6
187.7391 -7.6
187.7698 -7.6
187.7987 -7.6
187.832 -7.6
187.8594 -7.6
187.8927 -7.6
187.926 -7.6
187.9557 -7.6
187.9847 -7.6
188.0144 -7.6
188.0477 -7.6
188.0751 -7.6
188.1023 -7.6
188.1334 -7.6
188.1621 -7.6
188.1954 -7.6
188.222 -7.6
188.2553 -7.6
188.2861 -7.6
188.3166 -7.6
188.3499 -7.6
188.3794 -7.6
188.4117 -7.6
188.4438 -7.6
188.4761 -7.6
188.5095 -7.6
188.5428 -7.6
188.5761 -7.6
188.6095 -7.6
188.6412 -7.6
188.6745 -7.6
188.7039 -7.6
188.7344 -7.6
188.764 -7.6
188.7952 -7.6
188.8285 -7.6
188.8618 -7.6
188.8935 -7.6
188.9268 -7.6
188.9563 -7.6
188.9896 -7.6
189.0183 -7.6
189.048 -7.6
189.0776 -7.6
189.1068 -7.6
189.1402 -7.6
189.1717 -7.6
189.2024 -7.6
189.2296 -7.6
189.2622 -7.6
189.2955 -7.6
189.3289 -7.6
189.357 -7.6
189.3884 -7.6
189.4173 -7.6
189.4506 -7.6
189.4796 -7.6
189.5107 -7.6
189.5421 -7.6
189.5754 -7.6
189.6087 -7.6
189.6376 -7.6
189.6695 -7.6
189.6975 -7.6
189.7255 -7.6
189.7588 -7.6
189.7893 -7.6
189.8192 -7.6
189.8466 -7.6
189.8761 -7.6
189.9095 -7.6
189.937 -7.6
189.9644 -7.6
189.9962 -7.6
190.0295 -7.6
190.0629 -7.6
190.0927 -7.6
190.1253 -7.6
190.1586 -7.6
190.1879 -7.6
190.2212 -7.6
190.2515 -7.6
190.2813 -7.6
190.3093 -7.6
190.338 -7.6
190.3714 -7.6
190.4047 -7.6
190.4359 -7.6
190.4679 -7.6
190.4982 -7.6
190.5315 -7.6
190.5599 -7.6
190.5878 -7.6
190.6205 -7.6
190.6536 -7.6
190.6869 -7.6
190.7186 -7.6
190.7485 -7.6
190.778 -7.6
190.8065 -7.6
190.8398 -7.6
190.8729 -7.6
190.9039 -7.6
190.932 -7.6
190.9615 -7.6
190.9948 -7.6
191.0281 -7.6
191.0574 -7.6
191.0907 -7.6
191.1228 -7.6
191.1561 -7.6
191.1852 -7.6
191.2172 -7.6
191.2504 -7.6
191.2813 -7.6
191.3146 -7.6
191.3424 -7.6
191.3731 -7.6
191.4056 -7.6
191.4389 -7.6
191.4722 -7.6
191.501 -7.6
191.531 -7.6
191.5643 -7.6
191.5946 -7.6
191.6279 -7.6
191.659 -7.6
191.6909 -7.6
191.7209 -7.6
191.7516 -7.6
191.785 -7.6
191.8138 -7.6
191.8418 -7.6
191.872 -7.6
191.9016 -7.6
191.935 -7.6
191.9636 -7.6
191.9968 -7.6
192.0301 -7.6
192.0607 -7.6
192.094 -7.6
192.1274 -7.6
192.1607 -7.6
192.1895 -7.6
192.2218 -7.6
192.2552 -7.6
192.2868 -7.6
192.3165 -7.6
192.3466 -7.6
192.3753 -7.6
192.4086 -7.6
192.437 -7.6
192.4703 -7.6
192.5 -7.6
192.5332 -7.6
192.5666 -7.6
192.5999 -7.6
192.6295 -7.6
192.6611 -7.6
192.6907 -7.6
192.724 -7.6
192.7574 -7.6
192.7892 -7.6
192.8225 -7.6
192.8512 -7.6
192.8845 -7.6
192.914 -7.6
192.9471 -7.6
192.9753 -7.6
193.0048 -7.6
193.0381 -7.6
193.0706 -7.6
193.098 -7.6
193.1278 -7.6
193.1581 -7.6
193.1914 -7.6
193.2206 -7.6
193.254 -7.6
193.2865 -7.6
193.3162 -7.6
193.3495 -7.6
193.3829 -7.6
193.4127 -7.6
193.446 -7.6
193.479 -7.6
193.5124 -7.6
193.5452 -7.6
193.5759 -7.6
193.604 -7.6
193.6373 -7.6
193.6707 -7.6
193.7006 -7.6
193.7292 -7.6
193.7625 -7.6
193.792 -7.6
193.8253 -7.6
193.8587 -7.6
193.8879 -7.6
193.9212 -7.6
193.9506 -7.6
193.9837 -7.6
194.0133 -7.6
194.0433 -7.6
194.0718 -7.6
194.1001 -7.6
194.1334 -7.6
194.1668 -7.6
194.1969 -7.6
194.2264 -7.6
194.2597 -7.6
194.2908 -7.6
194.3241 -7.6
194.3508 -7.6
194.38 -7.6
194.4098 -7.6
194.4431 -7.6
194.4764 -7.6
194.5098 -7.6
194.5431 -7.6
194.5759 -7.6
194.6093 -7.6
194.6426 -7.6
194.6724 -7.6
194.7057 -7.6
194.7357 -7.6
194.769 -7.6
194.8023 -7.6
194.834 -7.6
194.8662 -7.6
194.8995 -7.6
194.9286 -7.6
194.962 -7.6
194.9953 -7.6
195.0286 -7.6
195.0577 -7.6
195.0872 -7.6
195.1205 -7.6
195.1516 -7.6
195.1823 -7.6
195.2153 -7.6
195.2487 -7.6
195.282 -7.6
195.3144 -7.6
195.3445 -7.6
195.3715 -7.6
195.4046 -7.6
195.4379 -7.6
195.4686 -7.6
195.4994 -7.6
195.5311 -7.6
195.5641 -7.6
195.5974 -7.6
195.6298 -7.6
195.6612 -7.6
195.6915 -7.6
195.7209 -7.6
195.7542 -7.6
195.7876 -7.6
195.8185 -7.6
195.8518 -7.6
195.8795 -7.6
195.9128 -7.6
195.9435 -7.6
195.9768 -7.6
196.0065 -7.6
196.0376 -7.6
196.0709 -7.6
196.101 -7.6
196.1311 -7.6
196.1644 -7.6
196.1977 -7.6
196.2311 -7.6
196.2601 -7.6
196.2905 -7.6
196.3224 -7.6
196.3558 -7.6
196.3887 -7.6
196.4196 -7.6
196.4513 -7.6
196.4805 -7.6
196.5092 -7.6
196.5425 -7.6
196.5758 -7.6
196.6046 -7.6
196.6318 -7.6
196.6614 -7.6
196.6947 -7.6
196.7261 -7.6
196.7565 -7.6
196.7898 -7.6
196.8201 -7.6
196.8534 -7.6
196.8819 -7.6
196.9126 -7.6
196.9459 -7.6
196.9743 -7.6
197.0077 -7.6
197.0395 -7.6
197.0721 -7.6
197.1003 -7.6
197.1318 -7.6
197.1651 -7.6
197.1947 -7.6
197.2275 -7.6
197.2549 -7.6
197.286 -7.6
197.3193 -7.6
197.3484 -7.6
197.3817 -7.6
197.4114 -7.6
197.443 -7.6
197.4764 -7.6
197.5097 -7.6
197.543 -7.6
197.5751 -7.6
197.6085 -7.6
197.6411 -7.6
197.6743 -7.6
197.7076 -7.6
197.741 -7.6
197.7736 -7.6
197.8069 -7.6
197.8383 -7.6
197.8665 -7.6
197.8968 -7.6
197.9276 -7.6
197.9609 -7.6
197.9943 -7.6
198.0213 -7.6
198.0513 -7.6
198.0811 -7.6
198.1145 -7.6
198.1416 -7.6
198.1738 -7.6
198.2053 -7.6
198.2386 -7.6
198.272 -7.6
198.3053 -7.6
198.3359 -7.6
198.3658 -7.6
198.3958 -7.6
198.4291 -7.6
198.4625 -7.6
198.4913 -7.6
198.5228 -7.6
198.5562 -7.6
198.5895 -7.6
198.6182 -7.6
198.6454 -7.6
198.6759 -7.6
198.7092 -7.6
198.7425 -7.6
198.771 -7.6
198.8018 -7.6
198.8321 -7.6
198.8637 -7.6
198.897 -7.6
198.927 -7.6
198.9603 -7.6
198.9922 -7.6
199.0201 -7.6
199.0534 -7.6
199.0847 -7.6
199.1141 -7.6
199.1419 -7.6
199.1725 -7.6
199.2059 -7.6
199.2392 -7.6
199.2716 -7.6
199.3038 -7.6
199.3372 -7.6
199.3705 -7.6
199.4014 -7.6
199.4347 -7.6
199.4647 -7.6
199.4926 -7.6
199.5256 -7.6
199.5571 -7.6
199.5904 -7.6
199.6197 -7.6
199.647 -7.6
199.6803 -7.6
199.7109 -7.6
199.7442 -7.6
199.7732 -7.6
199.8028 -7.6
199.8361 -7.6
199.868 -7.6
199.8967 -7.6
199.9271 -7.6
199.9604 -7.6
199.9938 -7.6
200.0266 -7.6
200.0587 -7.6
200.0889 -7.6
200.1181 -7.6
200.1515 -7.6
200.1848 -7.6
200.2147 -7.6
200.2462 -7.6
200.2764 -7.6
200.3098 -7.6
200.3431 -7.6
200.3709 -7.6
200.4002 -7.6
200.4336 -7.6
200.4669 -7.6
200.4991 -7.6
200.5324 -7.6
200.5611 -7.6
200.591 -7.6
200.6243 -7.6
200.6526 -7.6
200.6859 -7.6
200.7163 -7.6
200.7496 -7.6
200.7829 -7.6
200.8163 -7.6
200.8456 -7.6
200.879 -7.6
200.9094 -7.6
200.9427 -7.6
200.9751 -7.6
201.0052 -7.6
201.0385 -7.6
201.0716 -7.6
201.1049 -7.6
201.1326 -7.6
201.1659 -7.6
201.1985 -7.6
201.2289 -7.6
201.2622 -7.6
201.289 -7.6
201.3223 -7.6
201.353 -7.6
201.3828 -7.6
201.4161 -7.6
201.4495 -7.6
201.4806 -7.6
201.5091 -7.6
201.541 -7.6
201.5744 -7.6
201.6077 -7.6
201.6383 -7.6
201.6699 -7.6
201.7017 -7.6
201.735 -7.6
201.7641 -7.6
201.7928 -7.6
201.8242 -7.6
201.8575 -7.6
201.8909 -7.6
201.9201 -7.6
201.9512 -7.6
201.9845 -7.6
202.0156 -7.6
202.0489 -7.6
202.0823 -7.6
202.1128 -7.6
202.1443 -7.6
202.1736 -7.6
202.2069 -7.6
202.2369 -7.6
202.2687 -7.6
202.2962 -7.6
202.3274 -7.6
202.3607 -7.6
202.3895 -7.6
202.4205 -7.6
202.4502 -7.6
202.4801 -7.6
202.5135 -7.6
202.5468 -7.6
202.5765 -7.6
202.6098 -7.6
202.6385 -7.6
202.6718 -7.6
202.7031 -7.6
202.7323 -7.6
202.7629 -7.6
202.7905 -7.6
202.8239 -7.6
202.8572 -7.6
202.8864 -7.6
202.9153 -7.6
202.945 -7.6
202.9783 -7.6
203.0083 -7.6
203.0356 -7.6
203.0682 -7.6
203.1015 -7.6
203.1348 -7.6
203.1634 -7.6
203.1958 -7.6
203.2289 -7.6
203.2589 -7.6
203.2922 -7.6
203.3215 -7.6
203.3507 -7.6
203.3802 -7.6
203.4073 -7.6
203.4406 -7.6
203.4734 -7.6
203.5057 -6.3
203.5343 -6.3
203.5655 -4.8
203.5989 -2.8
203.6286 -2.8
203.662 -1.7
203.6953 -1.5
203.7253 -1.5
203.7586 -1.5
203.7865 -1.5
203.8178 -1.5
203.8471 -1.5
203.8771 -1.5
203.9094 -1.5
203.938 -1.5
203.9672 -1.5
203.9956 -1.5
204.0289 -1.5
204.0623 -1.5
204.0919 -1.5
204.1252 -1.5
204.1586 -1.5
204.1902 -1.5
204.2235 -1.5
204.2528 -1.5
204.2856 -1.5
204.3189 -1.5
204.3522 -1.5
204.3855 -1.5
204.4136 -1.5
204.4436 -1.5
204.4751 -1.5
204.5084 -1.5
204.5417 -1.5
204.5729 -1.5
204.6059 -1.5
204.6392 -1.5
204.6714 -1.5
204.7048 -1.5
204.7381 -1.5
204.7664 -1.5
204.7949 -1.5
204.8253 -1.5
204.8586 -1.5
204.8893 -1.5
204.9195 -1.5
204.949 -1.5
204.9823 -1.5
205.0156 -1.5
205.0432 -1.5
205.0734 -1.5
205.1067 -1.5
205.1388 -1.5
205.1721 -1.5
205.2026 -1.5
205.2359 -1.5
205.2654 -1.5
205.2926 -1.5
205.326 -1.5
205.3545 -1.5
205.3833 -1.5
205.4111 -1.5
205.4396 -1.5
205.4704 -1.5
205.5037 -1.5
205.5307 -1.5
205.5611 -1.5
205.5939 -1.5
205.6241 -1.5
205.6575 -1.5
205.6908 -1.5
205.7241 -1.5
205.7528 -1.5
205.7861 -1.5
205.8194 -1.5
205.8496 -1.5
205.8818 -1.5
205.9095 -1.5
205.9382 -1.5
205.9715 -1.5
206.0005 -1.5
206.0306 -1.5
206.064 -1.5
206.0973 -1.5
206.1306 -1.5
206.1601 -1.5
206.189 -1.5
206.2205 -1.5
206.2511 -1.5
206.2844 -1.5
206.3177 -1.5
206.3471 -1.5
206.377 -1.5
206.4104 -1.5
206.4437 -1.5
206.4732 -1.5
206.5065 -1.5
206.5341 -1.5
206.5675 -1.5
206.6008 -1.5
206.6293 -1.5
206.6627 -1.5
206.6943 -1.5
206.7261 -1.5
206.7594 -1.5
206.7871 -1.5
206.8204 -1.5
206.8537 -1.5
206.8848 -1.5
206.9182 -1.5
206.9507 -1.5
206.9797 -1.5
207.013 -1.5
207.0429 -1.5
207.0763 -1.5
207.1096 -1.5
207.1388 -1.5
207.171 -1.5
207.2009 -1.5
207.2342 -1.5
207.2675 -1.5
207.3009 -1.5
207.3342 -1.5
207.3675 -1.5
207.3958 -1.5
207.4242 -1.5
207.455 -1.5
207.4847 -1.5
207.5181 -1.5
207.5456 -1.5
207.5753 -1.5
207.6062 -1.5
207.6389 -1.5
207.6722 -1.5
207.7024 -1.5
207.7336 -1.5
207.7649 -1.5
207.7935 -1.5
207.8268 -1.5
207.8569 -1.5
207.8845 -1.5
207.9119 -1.5
207.9453 -1.5
207.9786 -1.5
208.0071 -1.5
208.0359 -1.5
208.0649 -1.5
208.0935 -1.5
208.1269 -1.5
208.1538 -1.5
208.1833 -1.5
208.2167 -1.5
208.25 -1.5
208.2834 -1.5
208.3167 -1.5
208.3455 -1.5
208.374 -1.5
208.4051 -1.5
208.4384 -1.5
208.4676 -1.5
208.501 -1.5
208.5293 -1.5
208.5593 -1.5
208.5927 -1.5
208.6208 -1.5
208.6506 -1.5
208.68 -1.5
208.7108 -1.5
208.7442 -1.5
208.7775 -1.5
208.8073 -1.5
208.8398 -1.5
208.8719 -1.5
208.9053 -1.5
208.9364 -1.5
208.9671 -1.5
208.9962 -1.5
209.0247 -1.5
209.058 -1.5
209.0914 -1.5
209.1241 -1.5
209.1511 -1.5
209.1827 -1.5
209.216 -1.5
209.2456 -1.5
209.2755 -1.5
209.3052 -1.5
209.3357 -1.5
209.369 -1.5
209.3991 -1.5
209.4282 -1.5
209.4579 -1.5
209.4884 -1.5
209.5217 -1.5
209.555 -1.5
209.5846 -1.5
209.6129 -1.5
209.6422 -1.5
209.6756 -1.5
209.7089 -1.5
209.7384 -1.5
209.7668 -1.5
209.8001 -1.5
209.8335 -1.5
209.8654 -1.5
209.8925 -1.5
209.9229 -1.5
209.9523 -1.5
209.9856 -1.5
210.0147 -1.5
210.0461 -1.5
210.0777 -1.5
210.1074 -1.5
210.1407 -1.5
210.1741 -1.5
210.2029 -1.5
210.2331 -1.5
210.2621 -1.5
210.2954 -1.5
210.3252 -1.5
210.3552 -1.5
210.3833 -1.5
210.4141 -1.5
210.4474 -1.5
210.478 -1.5
210.5096 -1.5
210.5378 -1.5
210.5707 -1.5
210.6041 -1.5
210.6349 -1.5
210.6672 -1.5
210.6998 -1.5
210.729 -1.5
210.7623 -1.5
210.7953 -1.5
210.8238 -1.5
210.8528 -1.5
210.8808 -1.5
210.9141 -1.5
210.946 -1.5
210.9763 -1.5
211.0048 -1.5
211.0366 -1.05
211.0699 -0.85
211.098 -0.85
211.1294 -0.65
211.1601 -0.65
211.1918 -0.65
211.2251 -0.65
211.2519 -0.65
211.2852 -0.65
211.3181 -0.65
211.3476 -0.65
211.3809 -0.65
211.4104 -0.65
211.4404 -0.65
211.4689 -0.65
211.5014 -0.65
211.5347 -0.65
211.5681 -0.65
211.5962 -0.65
211.6296 -0.65
211.6583 -0.65
211.6916 -0.65
211.7191 -0.65
211.7495 -0.65
211.7804 -0.65
211.8138 -0.65
211.8471 -0.65
211.8745 -0.65
211.9078 -0.65
211.9383 -0.65
211.9694 -0.65
212.0021 -0.65
212.0316 -0.65
212.061 -0.65
212.0906 -0.65
212.1196 -0.65
212.153 -0.65
212.1826 -0.65
212.2106 -0.65
212.2381 -0.65
212.2714 -0.65
212.3047 -0.65
212.338 -0.65
212.3701 -0.65
212.4019 -0.65
212.431 -0.65
212.4644 -0.65
212.4924 -0.65
212.5258 -0.65
212.5591 -0.65
212.5888 -0.65
212.6216 -0.65
212.6549 -0.65
212.6857 -0.65
212.7165 -0.65
212.7448 -0.65
212.7781 -0.65
212.8076 -0.65
212.8361 -0.65
212.8664 -0.65
212.8997 -0.65
212.933 -0.65
212.9638 -0.65
212.992 -0.65
213.0234 -0.65
213.0567 -0.65
213.0901 -0.65
213.1183 -0.65
213.1516 -0.65
213.1805 -0.65
213.2081 -0.65
213.2414 -0.65
213.2735 -0.65
213.3066 -0.65
213.3386 -0.65
213.3662 -0.65
213.3996 -0.65
213.4279 -0.65
213.4566 -0.65
213.4899 -0.65
213.5221 -0.65
213.5555 -0.65
213.5846 -0.65
213.6129 -0.65
213.6414 -0.65
213.6702 -0.65
213.7035 -0.65
213.7301 -0.65
213.7611 -0.65
213.7901 -0.65
213.8184 -0.65
213.8517 -0.65
213.8819 -0.65
213.9119 -0.65
213.9446 -0.65
213.9779 -0.65
214.0112 -0.65
214.0446 -0.65
214.0757 -0.65
214.1041 -0.65
214.1335 -0.65
214.1669 -0.65
214.1954 -0.65
214.2288 -0.65
214.2621 -0.65
214.2913 -0.65
214.3246 -0.65
214.3526 -0.65
214.3837 -0.65
214.4122 -0.65
214.4402 -0.65
214.4735 -0.65
214.504 -0.65
214.5373 -0.65
214.5655 -0.65
214.5921 -0.65
214.6254 -0.65
214.6588 -0.65
214.6859 -0.65
214.7139 -0.65
214.7417 -0.65
214.7751 -0.65
214.8046 -0.65
214.8379 -0.65
214.8688 -0.65
214.9007 -0.65
214.9341 -0.65
214.9608 -0.65
214.9932 -0.65
215.0222 -0.65
215.0517 -0.65
215.0851 -0.65
215.1149 -0.65
215.1483 -0.65
215.1776 -0.65
215.207 -0.65
215.2403 -0.65
215.2705 -0.65
215.3009 -0.65
215.3275 -0.65
215.3586 -0.65
215.392 -0.65
215.4198 -0.65
215.4495 -0.65
215.4828 -0.65
215.5162 -0.65
215.5495 -0.65
215.5781 -0.65
215.6065 -0.65
215.6375 -0.65
215.6708 -0.65
215.7041 -0.65
215.7344 -0.65
215.7641 -0.65
215.7938 -0.65
215.8221 -0.65
215.8554 -0.65
215.8881 -0.65
215.9184 -0.65
215.9478 -0.65
215.9799 -0.65
216.0132 -0.65
216.0437 -0.65
216.072 -0.65
216.1006 -0.65
216.1298 -0.65
216.1631 -0.65
216.1925 -0.65
216.2255 -0.65
216.2588 -0.65
216.2885 -0.65
216.3218 -0.65
216.354 -0.65
216.3841 -0.65
216.413 -0.65
216.4463 -0.65
216.4797 -0.65
216.5108 -0.65
216.5381 -0.65
216.568 -0.65
216.601 -0.65
216.6343 -0.65
216.6676 -0.65
216.6969 -0.65
216.7293 -0.65
216.7601 -0.65
216.7935 -0.65
216.8233 -0.65
216.8566 -0.65
216.8883 -0.65
216.9216 -0.65
216.9549 -0.65
216.9853 -0.65
217.017 -0.65
217.0467 -0.65
217.0746 -0.65
217.108 -0.65
217.1369 -0.65
217.1662 -0.65
217.1935 -0.65
217.2253 -0.65
217.2587 -0.65
217.2909 -0.65
217.3185 -0.65
217.3466 -0.65
217.3782 -0.65
217.4115 -0.65
217.4435 -0.65
217.4746 -0.65
217.5054 -0.65
217.5359 -0.65
217.5692 -0.65
217.5976 -0.65
217.6261 -0.65
217.6592 -0.65
217.6901 -0.65
217.7235 -0.65
217.7517 -0.65
217.7791 -0.65
217.8069 -0.65
217.8403 -0.65
217.8736 -0.65
217.9047 -0.65
217.9322 -0.65
217.9619 -0.65
217.993 -0.65
218.0263 -0.65
218.0535 -0.65
218.0824 -0.65
218.1156 -0.65
218.143 -0.65
218.1763 -0.65
218.206 -0.65
218.2373 -0.65
218.2686 -0.65
218.2955 -0.65
218.3288 -0.65
218.3619 -0.65
218.3929 -0.65
218.4227 -0.65
218.4553 -0.65
218.4886 -0.65
218.5164 -0.65
218.5439 -0.65
218.5772 -0.65
218.6057 -0.65
218.6385 -0.65
218.6677 -0.65
218.701 -0.65
218.7299 -0.65
218.7603 -0.65
218.7936 -0.65
218.8227 -0.65
218.8516 -0.65
218.8801 -0.65
218.9076 -0.65
218.9409 -0.65
218.9742 -0.65
219.0075 -0.65
219.0362 -0.65
219.0695 -0.65
219.1029 -0.65
219.1308 -0.65
219.1597 -0.65
219.1906 -0.65
219.2196 -0.65
219.2529 -0.65
219.2809 -0.65
219.3089 -0.65
219.3394 -0.65
219.3673 -0.65
219.3978 -0.65
219.4311 -0.65
219.4612 -0.65
219.4945 -0.65
219.5239 -0.65
219.5544 -0.65
219.5877 -0.65
219.6192 -0.65
219.6468 -0.65
219.6794 -0.65
219.709 -0.65
219.7423 -0.65
219.7689 -0.65
219.8005 -0.65
219.8331 -0.65
219.8614 -0.65
219.8947 -0.65
219.9236 -0.65
219.9519 -0.65
219.9817 -0.65
220.015 -0.65
220.0484 -0.65
220.0775 -0.65
220.1063 -0.65
220.1369 -0.65
220.1686 -0.65
220.202 -0.65
220.2326 -0.65
220.2597 -0.65
220.2899 -0.65
220.3204 -0.65
220.3537 -0.65
220.3839 -0.65
220.4127 -0.65
220.4414 -0.65
220.4692 -0.65
220.5025 -0.65
220.5329 -0.65
220.5618 -0.65
220.5909 -0.65
220.6242 -0.65
220.6575 -0.65
220.6875 -0.65
220.7163 -0.65
220.7444 -0.65
220.7735 -0.65
220.8068 -0.65
220.8353 -0.65
220.8623 -0.65
220.8914 -0.65
220.922 -0.65
220.9553 -0.65
220.9827 -0.65
221.0118 -0.65
221.0443 -0.65
221.0758 -0.65
221.109 -0.65
221.1423 -0.65
221.1719 -0.65
221.2001 -0.65
221.2318 -0.65
221.2651 -0.65
221.2957 -0.65
221.3239 -0.65
221.3527 -0.65
221.3855 -0.65
221.4188 -0.65
221.4478 -0.65
221.4756 -0.65
221.5053 -0.65
221.5358 -0.65
221.5691 -0.65
221.6001 -0.65
221.6304 -0.65
221.6582 -0.65
221.6867 -0.65
221.72 -0.65
221.7494 -0.65
221.7778 -0.65
221.8059 -0.65
221.8368 -0.65
221.8701 -0.65
221.9033 -0.65
221.9308 -0.65
221.9587 -0.65
221.9905 -0.65
222.0238 -0.65
222.0529 -0.65
222.0863 -0.65
222.1158 -0.65
222.1465 -0.65
222.1799 -0.65
222.2083 -0.65
222.2388 -0.2
222.2679 -0.2
222.2995 -0.2
222.3328 -0.2
222.3632 -0.2
222.3935 -0.2
222.4216 -0.2
222.4538 -0.2
222.4871 -0.2
222.5152 -0.2
222.543 -0.2
222.5763 -0.2
222.6093 -0.2
222.6426 -0.2
222.6746 -0.2
222.7025 -0.2
222.7358 -0.2
222.7692 -0.2
222.8025 -0.2
222.8293 -0.2
222.8598 -0.2
222.8892 -0.2
222.9172 -0.2
222.9443 -0.2
222.9776 -0.2
223.0077 -0.2
223.0377 -0.2
223.065 -0.2
223.0965 -0.2
223.1298 -0.2
223.1585 -0.2
223.1872 -0.2
223.2164 -0.2
223.2484 -0.2
223.2817 -0.2
223.3088 -0.2
223.3385 -0.2
223.3679 -0.2
223.3958 -0.2
223.4239 -0.2
223.4572 -0.2
223.4863 -0.2
223.5196 -0.2
223.5476 -0.2
223.58 -0.2
223.6134 -0.2
223.642 -0.2
223.671 -0.2
223.7009 -0.2
223.7328 -0.2
223.7662 -0.2
223.798 -0.2
223.8313 -0.2
223.8647 -0.2
223.8927 -0.2
223.925 -0.2
223.9549 -0.2
223.9859 -0.2
224.0144 -0.2
224.0428 -0.2
224.0762 -0.2
224.1095 -0.2
224.1372 -0.2
224.1642 -0.2
224.1928 -0.2
224.2261 -0.2
224.2567 -0.2
224.2857 -0.2
224.319 -0.2
224.3523 -0.2
224.3857 -0.2
224.4135 -0.2
224.4417 -0.2
224.475 -0.2
224.5046 -0.2
224.5379 -0.2
224.5685 -0.2
224.6019 -0.2
224.6294 -0.2
224.6569 -0.2
224.6902 -0.2
224.7206 -0.2
224.7483 -0.2
224.7801 -0.2
224.8089 -0.2
224.8422 -0.2
224.8712 -0.2
224.8995 -0.2
224.9304 -0.2
224.9589 -0.2
224.9922 -0.2
225.02 -0.2
225.0495 -0.2
225.0782 -0.2
225.1065 -0.2
225.1398 -0.2
225.1705 -0.2
225.2017 -0.2
225.2339 -0.2
225.2623 -0.2
225.2956 -0.2
225.3273 -0.2
225.355 -0.2
225.3824 -0.2
225.4127 -0.2
225.446 -0.2
225.4747 -0.2
225.5019 -0.2
225.5353 -0.2
225.5638 -0.2
225.5971 -0.2
225.624 -0.2
225.6533 -0.2
225.6848 -0.2
225.7181 -0.2
225.7514 -0.2
225.7829 -0.2
225.8128 -0.2
225.8409 -0.2
225.8705 -0.2
225.9038 -0.2
225.9372 -0.2
225.9687 -0.2
225.9963 -0.2
226.0255 -0.2
226.0588 -0.2
226.0894 -0.2
226.1163 -0.2
226.1482 -0.2
226.1815 -0.2
226.2149 -0.2
226.2482 -0.2
226.2778 -0.2
226.3073 -0.2
226.34 -0.2
226.3731 -0.2
226.4064 -0.2
226.439 -0.2
226.4666 -0.2
226.4941 -0.2
226.5275 -0.2
226.5602 -0.2
226.5889 -0.2
226.6193 -0.2
226.6474 -0.2
226.6808 -0.2
226.7141 -0.2
226.744 -0.2
226.7773 -0.2
226.8068 -0.2
226.8402 -0.2
226.869 -0.2
226.8986 -0.2
226.928 -0.2
226.9563 -0.2
226.9896 -0.2
227.0182 -0.2
227.0471 -0.2
227.0769 -0.2
227.1031 -0.2
227.1349 -0.2
227.1682 -0.2
227.1989 -0.2
227.2255 -0.2
227.2545 -0.2
227.2849 -0.2
227.3182 -0.2
227.3461 -0.2
227.3759 -0.2
227.4083 -0.2
227.4363 -0.2
227.4696 -0.2
227.503 -0.2
227.5363 -0.2
227.5696 -0.2
227.6019 -0.2
227.6352 -0.2
227.6649 -0.2
227.6946 -0.2
227.7251 -0.2
227.7549 -0.2
227.7882 -0.2
227.8154 -0.2
227.8452 -0.2
227.8756 -0.2
227.9049 -0.2
227.9382 -0.2
227.9663 -0.2
227.9955 -0.2
228.0241 -0.2
228.053 -0.2
228.0862 -0.2
228.1195 -0.2
228.1492 -0.2
228.1765 -0.2
228.2038 -0.2
228.2372 -0.2
228.2662 -0.2
228.2978 -0.2
228.3261 -0.2
228.3554 -0.2
228.3887 -0.2
228.4221 -0.2
228.4496 -0.2
228.478 -0.2
228.508 -0.2
228.5414 -0.2
228.5698 -0.2
228.5992 -0.2
228.6293 -0.2
228.6593 -0.2
228.6927 -0.2
228.726 -0.2
228.7574 -0.2
228.7861 -0.2
228.819 -0.2
228.8524 -0.2
228.8815 -0.2
228.9099 -0.2
228.9427 -0.2
228.976 -0.2
229.0094 -0.2
229.0427 -0.2
229.0692 -0.2
229.1004 -0.2
229.1311 -0.2
229.1644 -0.2
229.1914 -0.2
229.22 -0.2
229.2489 -0.2
229.2777 -0.2
229.3094 -0.2
229.3427 -0.2
229.3755 -0.2
229.4034 -0.2
229.4306 -0.2
229.4586 -0.2
229.4877 -0.2
229.521 -0.2
229.5513 -0.2
229.5847 -0.2
229.6146 -0.2
229.6434 -0.2
229.6768 -0.2
229.7051 -0.2
229.7335 -0.2
229.7669 -0.2
229.7943 -0.2
229.8277 -0.2
229.8572 -0.2
229.8846 -0.2
229.9131 -0.2
229.9418 -0.2
229.9752 -0.2
230.0025 -0.2
230.0291 -0.2
230.0624 -0.2
230.0919 -0.2
230.1252 -0.2
230.1546 -0.2
230.1879 -0.2
230.2207 -0.2
230.2531 -0.2
230.2856 -0.2
230.3147 -0.2
230.346 -0.2
230.3758 -0.2
230.4022 -0.2
230.4314 -0.2
230.4648 -0.2
230.4963 -0.2
230.527 -0.2
230.5603 -0.2
230.5902 -0.2
230.6235 -0.2
230.6546 -0.2
230.6854 -0.2
230.7131 -0.2
230.7436 -0.2
230.7766 -0.2
230.8082 -0.2
230.8415 -0.2
230.8689 -0.2
230.8997 -0.2
230.933 -0.2
230.963 -0.2
230.9937 -0.2
231.0248 -0.2
231.0562 -0.2
231.0896 -0.2
231.118 -0.2
231.1506 -0.2
231.184 -0.2
231.2162 -0.2
231.2495 -0.2
231.277 -0.2
231.3104 -0.2
231.3401 -0.2
231.37 -0.2
231.4033 -0.2
231.4318 -0.2
231.4612 -0.2
231.4899 -0.2
231.5223 -0.2
231.5556 -0.2
231.5863 -0.2
231.6134 -0.2
231.6422 -0.2
231.6715 -0.2
231.7049 -0.2
231.7361 -0.2
231.7628 -0.2
231.7908 -0.2
231.8199 -0.2
231.8533 -0.2
231.8815 -0.2
231.9095 -0.2
231.941 -0.2
231.9699 -0.2
232.0032 -0.2
232.032 -0.2
232.0654 -0.2
232.094 -0.2
232.1211 -0.2
232.1544 -0.2
232.183 -0.2
232.2102 -0.2
232.2416 -0.2
232.2749 -0.2
232.3082 -0.2
232.3376 -0.2
232.366 -0.2
232.3979 -0.2
232.4269 -0.2
232.4602 -0.2
232.4935 -0.2
232.5221 -0.2
232.5514 -0.2
232.5828 -0.2
232.6154 -0.2
232.6438 -0.2
232.6743 -0.2
232.7041 -0.2
232.7365 -0.2
232.7699 -0.2
232.799 -0.2
232.8284 -0.2
232.8552 -0.2
232.8828 -0.2
232.9146 -0.2
232.9479 -0.2
232.976 -0.2
233.0058 -0.2
233.0391 -0.2
233.0699 -0.2
233.1032 -0.2
233.1341 -0.2
233.1649 -0.2
233.1949 -0.2
233.2245 -0.2
233.2578 -0.2
233.2912 -0.2
233.3216 -0.2
233.3543 -0.2
233.383 -0.2
233.4163 -0.2
233.4446 -0.2
233.4727 -0.2
233.5046 -0.2
233.5344 -0.2
233.5677 -0.2
233.5958 -0.2
233.6251 -0.2
233.6572 -0.2
233.685 -0.2
233.7177 -0.2
233.751 -0.2
233.7815 -0.2
233.8094 -0.2
233.8406 -0.2
233.8739 -0.2
233.9073 -0.2
233.9361 -0.2
233.9645 -0.2
233.9946 -0.2
234.0279 -0.2
234.0569 -0.2
234.086 -0.2
234.1191 -0.2
234.1487 -0.2
234.182 -0.2
234.2088 -0.2
234.2421 -0.2
234.2755 -0.2
234.3088 -0.2
234.3421 -0.2
234.3746 -0.2
234.4027 -0.2
234.436 -0.2
234.4632 -0.2
234.4966 -0.2
234.5275 -0.2
234.5556 -0.2
234.5832 -0.2
234.6163 -0.2
234.6496 -0.2
234.6795 -0.2
234.7072 -0.2
234.7405 -0.2
234.77 -0.2
234.8033 -0.2
234.834 -0.2
234.8673 -0.2
234.8978 -0.2
234.9311 -0.2
234.9645 -0.2
234.9944 -0.2
235.0254 -0.2
235.0567 -0.2
235.0842 -0.2
235.1175 -0.2
235.1461 -0.2
235.1788 -0.2
235.2095 -0.2
235.2421 -0.2
235.2754 -0.2
235.3088 -0.2
235.3383 -0.2
235.3683 -0.2
235.3971 -0.2
235.4305 -0.2
235.4608 -0.2
235.4915 -0.2
235.5217 -0.2
235.5502 -0.2
235.5835 -0.2
235.6122 -0.2
235.6408 -0.2
235.6728 -0.2
235.7029 -0.2
235.7362 -0.2
235.7695 -0.2
235.7977 -0.2
235.8261 -0.2
235.8581 -0.2
235.8914 -0.2
235.9193 -0.2
235.9483 -0.2
235.9817 -0.2
236.0107 -0.2
236.044 -0.2
236.0733 -0.2
236.1028 -0.2
236.1361 -0.2
236.1662 -0.2
236.1995 -0.2
236.2328 -0.2
236.264 -0.2
236.2922 -0.2
236.3254 -0.2
236.3588 -0.2
236.3875 -0.2
236.4202 -0.2
236.4482 -0.2
236.4802 -0.2
236.5135 -0.2
236.5428 -0.2
236.5708 -0.2
236.6021 -0.2
236.6354 -0.2
236.6688 -0.2
236.7021 -0.2
236.7309 -0.2
236.7626 -0.2
236.7934 -0.2
236.8258 -0.2
236.8562 -0.2
236.885 -0.2
236.9121 -0.2
236.9394 -0.2
236.9687 -0.2
237.002 -0.2
237.0311 -0.2
237.0591 -0.2
237.0924 -0.2
237.1215 -0.2
237.1549 -0.2
237.1822 -0.2
237.2144 -0.2
237.2428 -0.2
237.2711 -0.2
237.3044 -0.2
237.3345 -0.2
237.3648 -0.2
237.3981 -0.2
237.4272 -0.2
237.4606 -0.2
237.4904 -0.2
237.5204 -0.2
237.5482 -0.2
237.578 -0.2
237.6113 -0.2
237.6393 -0.2
237.6657 -0.2
237.6991 -0.2
237.7294 -0.2
237.7627 -0.2
237.7915 -0.2
237.8249 -0.2
237.8563 -0.2
237.8855 -0.2
237.9188 -0.2
237.9481 -0.2
237.9781 -0.2
238.0076 -0.2
238.0392 -0.2
238.0726 -0.2
238.1012 -0.2
238.1311 -0.2
238.1644 -0.2
238.195 -0.2
238.2283 -0.2
238.256 -0.2
238.2868 -0.2
238.3202 -0.2
238.3488 -0.2
238.3821 -0.2
238.4087 -0.2
238.442 -0.2
238.4698 -0.2
238.5017 -0.2
238.535 -0.2
238.5673 -0.2
238.5992 -0.2
238.6317 -0.2
238.6617 -0.2
238.6951 -0.2
238.7279 -0.2
238.7554 -0.2
238.7837 -0.2
238.8147 0.2
238.8481 1.7
238.8801 1.7
238.9088 3.45
238.9375 3.45
238.9708 4.55
239.0042 4.55
239.0339 4.55
239.0663 4.55
239.0952 4.55
239.1272 4.55
239.1605 4.55
239.1896 4.55
239.222 4.55
239.2503 4.55
239.2776 4.55
239.3109 4.55
239.3406 4.55
239.3736 4.55
239.402 4.55
239.4304 4.55
239.4637 4.55
239.4934 4.55
239.5268 4.55
239.5555 4.55
239.5889 4.55
239.6222 4.55
239.65 4.55
239.6816 4.55
239.7114 4.55
239.7401 4.55
239.7726 4.55
239.8014 4.55
239.832 4.55
239.8614 4.55
239.8884 4.55
239.9218 4.55
239.9551 4.55
239.9852 4.55
240.0158 4.55
240.0448 4.55
240.0775 4.55
240.1109 4.55
240.1442 4.55
240.1775 4.55
240.2059 4.55
240.2357 4.55
240.269 4.55
240.2994 4.55
240.33 4.55
240.3629 4.55
240.3934 4.55
240.4268 4.55
240.4585 4.55
240.4918 4.55
240.5181 4.55
240.5469 4.55
240.5802 4.55
240.6097 4.55
240.6369 4.55
240.6697 4.55
240.7031 4.55
240.7364 4.55
240.7697 4.55
240.8005 4.55
240.8306 4.55
240.864 4.55
240.8973 4.55
240.9253 4.55
240.958 4.55
240.986 4.55
241.0139 4.55
241.0472 4.55
241.0758 4.55
241.1091 4.55
241.1384 4.55
241.1702 4.55
241.2035 4.55
241.2351 4.55
241.2634 4.55
241.2954 4.55
241.3253 4.55
241.3584 4.55
241.3856 4.55
241.4181 4.55
241.4496 4.55
241.4819 4.55
241.5143 4.55
241.5429 4.55
241.5716 4.55
241.5999 4.55
241.6329 4.55
241.6662 4.55
241.695 4.55
241.7262 4.55
241.7564 4.55
241.7898 4.55
241.8231 4.55
241.8564 4.55
241.8873 4.55
241.9207 4.55
241.9518 4.55
241.9851 4.55
242.0127 4.55
242.044 4.55
242.0737 4.55
242.1071 4.55
242.1404 4.55
242.1732 4.55
242.2066 4.55
242.2389 4.55
242.2661 4.55
242.2995 4.55
242.3311 4.55
242.3605 4.55
242.391 4.55
242.4195 4.55
242.4529 4.55
242.4862 4.55
242.5139 4.55
242.5427 4.55
242.5714 4.55
242.6047 4.55
242.6319 4.55
242.6633 4.55
242.6924 4.55
242.7208 4.55
242.7523 4.55
242.7856 4.55
242.8146 4.55
242.845 4.55
242.8728 4.55
242.9023 4.55
242.9356 4.55
242.9636 4.55
242.9911 4.55
243.0236 4.55
243.0546 4.55
243.0879 4.55
243.1161 4.55
243.1472 4.55
243.1806 4.55
243.2131 4.55
243.2464 4.55
243.2753 4.55
243.3068 4.55
243.3362 4.55
243.3653 4.55
243.3986 4.55
243.4271 4.55
243.4543 4.55
243.4824 4.55
243.5157 4.55
243.5491 4.55
243.5771 4.55
243.6104 4.55
243.6395 4.55
243.6692 4.55
243.7025 4.55
243.7305 4.55
243.7615 4.55
243.7909 4.55
243.8206 4.55
243.8539 4.55
243.8828 4.55
243.9138 4.55
243.9407 4.55
243.9676 4.55
243.9997 4.55
244.0331 4.55
244.0612 4.55
244.0886 4.55
244.1184 4.55
244.1475 4.55
244.1769 4.55
244.2102 4.55
244.239 4.55
244.267 4.55
244.2945 4.55
244.3257 4.55
244.359 4.55
244.3881 4.55
244.4161 4.55
244.4437 4.55
244.4738 4.55
244.5071 4.55
244.5349 4.55
244.5628 4.55
244.5922 4.55
244.6233 4.55
244.6566 4.55
244.6837 4.55
244.717 4.55
244.7464 4.55
244.7766 4.55
244.8095 4.55
244.8428 4.55
244.8736 4.55
244.9021 4.55
244.9323 4.55
244.9656 4.55
244.996 4.55
245.0252 4.55
245.0566 4.55
245.0862 4.55
245.1195 4.55
245.1472 4.55
245.1747 4.55
245.2028 4.55
245.235 4.55
245.2683 4.55
245.2979 4.55
245.3293 4.55
245.3602 4.55
245.3891 4.55
245.4224 4.55
245.4557 4.55
245.4864 4.55
245.5157 4.55
245.5491 4.55
245.5824 4.55
245.6122 4.55
245.6395 4.55
245.666 4.55
245.6947 4.55
245.7235 4.55
245.7569 4.55
245.7833 4.55
245.8125 4.55
245.8444 4.55
245.8768 4.55
245.9102 4.55
245.9416 4.55
245.972 4.55
246.0004 4.55
246.0338 4.55
246.0671 4.55
246.1004 4.55
246.1319 4.55
246.1592 4.55
246.192 4.55
246.2253 4.55
246.2529 4.55
246.2852 4.55
246.3162 4.55
246.3496 4.55
246.3829 4.55
246.4118 4.55
246.4452 4.55
246.4743 4.55
246.5047 4.55
246.5381 4.55
246.5714 4.55
246.6021 4.55
246.6311 4.55
246.6597 4.55
246.693 4.55
246.7214 4.55
246.7495 4.55
246.7771 4.55
246.8058 4.55
246.8347 4.55
246.868 4.55
246.8997 4.55
246.928 4.55
246.9596 4.55
246.9872 4.55
247.0205 4.55
247.0492 4.55
247.0774 4.55
247.1074 4.55
247.1366 4.55
247.1699 4.55
247.2033 4.55
247.2325 4.55
247.2634 4.55
247.2949 4.55
247.3283 4.55
247.356 4.55
247.383 4.55
247.4118 4.55
247.442 4.55
247.4731 4.55
247.5064 4.55
247.5398 4.55
247.5731 4.55
247.6043 4.55
247.6325 4.55
247.6658 4.55
247.6944 4.55
247.7219 4.55
247.7516 4.55
247.7831 4.55
247.8164 4.55
247.8475 4.55
247.8808 4.55
247.9091 4.55
247.9384 4.55
247.9717 4.55
248.0047 4.55
248.0363 4.55
248.0661 4.55
248.0953 4.55
248.1286 4.55
248.1588 4.55
248.1897 4.55
248.2186 4.55
248.2476 4.55
248.2809 4.55
248.3114 4.55
248.3406 4.55
248.3679 4.55
248.4012 4.55
248.4345 4.55
248.4623 4.55
248.49 4.55
248.5197 4.55
248.5478 4.55
248.578 4.55
248.6113 4.55
248.6425 4.55
248.6712 4.55
248.7038 4.55
248.7339 4.55
248.7673 4.55
248.7988 4.55
248.8309 4.55
248.8582 4.55
248.8872 4.55
248.9205 4.55
248.9539 4.55
248.981 4.55
249.0143 4.55
249.0437 4.55
249.0771 4.55
249.1104 4.55
249.1433 4.55
249.1748 4.55
249.2032 4.55
249.2359 4.55
249.2692 4.55
249.3016 4.55
249.3295 4.55
249.3577 4.55
249.391 4.55
249.4206 4.55
249.4487 4.55
249.4764 4.55
249.5057 4.55
249.539 4.55
249.5675 4.55
249.5963 4.55
249.6257 4.55
249.659 4.55
249.6923 4.55
249.7245 4.55
249.754 4.55
249.7859 4.55
249.8136 4.55
249.8469 4.55
249.8762 4.55
249.9073 4.55
249.9388 4.55
249.9699 4.55
250.0032 4.55
250.0321 4.55
250.0596 4.55
250.0866 4.55
250.1156 4.55
250.1447 4.55
250.178 4.55
250.2105 4.55
250.2439 4.55
250.2772 4.55
250.3072 4.55
250.3405 4.55
250.372 4.55
250.4013 4.55
250.4337 4.55
250.4632 4.55
250.4965 4.55
250.5269 4.55
250.5567 4.55
250.59 4.55
250.6229 4.55
250.6562 4.55
250.6885 4.55
250.7214 4.55
250.7529 4.55
250.7843 4.55
250.8176 4.55
250.8504 4.55
250.8838 4.55
250.9171 4.55
250.9462 4.55
250.9796 4.55
251.0081 4.55
251.0383 4.55
251.0691 4.55
251.0967 4.55
251.1301 4.55
251.1586 4.55
251.1882 4.55
251.2204 4.55
251.2537 4.55
251.2871 4.55
251.3181 4.55
251.3473 4.55
251.3785 4.55
251.4102 4.55
251.4435 4.55
251.4741 4.55
251.5073 4.55
251.5388 4.55
251.569 4.55
251.6023 4.55
251.6317 4.55
251.6628 4.55
251.6907 4.55
251.7182 4.55
251.7516 4.55
251.7811 4.55
251.8086 4.55
251.838 4.55
251.8713 4.55
251.9047 4.55
251.9328 4.55
251.9635 4.55
251.9927 4.55
252.026 4.55
252.0594 4.55
252.0927 4.55
252.1227 4.55
252.152 4.55
252.1809 4.55
252.2142 4.55
252.2465 4.55
252.2799 4.55
252.3101 4.55
252.339 4.55
252.3723 4.55
252.4015 4.55
252.4315 4.55
252.4595 4.55
252.491 4.55
252.5243 4.55
252.5522 4.55
252.5843 4.55
252.6176 4.55
252.6509 4.55
252.6843 4.55
252.7168 4.55
252.7487 4.55
252.7786 4.55
252.8092 4.55
252.8425 4.55
252.8759 4.55
252.9055 4.55
252.9335 4.55
252.9634 4.55
252.9967 4.55
253.0301 4.55
253.0603 4.55
253.0868 4.55
253.1183 4.55
253.1517 4.55
253.1808 4.55
253.2098 4.55
253.2431 4.55
253.2728 4.55
253.3061 4.55
253.3346 4.55
253.3679 4.55
253.3999 4.55
253.4287 4.55
253.462 4.55
253.4954 4.55
253.5232 4.55
253.5512 4.55
253.5808 4.55
253.6142 4.55
253.6432 4.55
253.6714 4.55
253.7028 4.55
253.7335 4.55
253.7669 4.55
253.8002 4.55
253.8282 4.55
253.8591 4.55
253.8915 4.55
253.9248 4.55
253.9537 4.55
253.9825 4.55
254.0158 4.55
254.0459 4.55
254.0786 4.55
254.1086 4.55
254.1377 4.55
254.171 4.55
254.1977 4.55
254.231 4.55
254.2603 4.55
254.288 4.55
254.3161 4.55
254.3443 4.55
254.3736 4.55
254.407 4.55
254.4386 4.55
254.4682 4.55
254.5015 4.55
254.5345 4.55
254.5678 4.55
254.5974 4.55
254.6257 4.55
254.6531 4.55
254.6845 4.55
254.7179 4.55
254.7512 4.55
254.7824 4.55
254.8088 4.55
254.837 4.55
254.8703 4.55
254.8985 4.55
254.9291 4.55
254.9581 4.55
254.9899 4.55
255.0232 4.55
255.0519 4.55
255.0818 4.55
255.1103 4.55
255.1389 4.55
255.1722 4.55
255.201 4.55
255.2319 4.55
255.2596 4.55
255.2916 4.55
255.3249 4.55
255.3564 4.55
255.3851 4.55
255.4125 4.55
255.4407 4.55
255.4725 4.55
255.5058 4.55
255.5323 4.55
255.5656 4.55
255.599 4.55
255.628 4.55
255.6613 4.55
255.6941 4.55
255.7223 4.55
255.7556 4.55
255.789 4.55
255.8223 4.55
255.8556 4.55
255.8874 4.55
255.9144 4.55
255.9477 4.55
255.981 4.55
256.0099 4.55
256.0396 4.55
256.0696 4.55
256.1024 4.55
256.1357 4.55
256.1625 4.55
256.1952 4.55
256.2261 4.55
256.2593 4.55
256.2926 4.55
256.3241 4.55
256.3547 4.55
256.3846 4.55
256.4122 4.55
256.4455 4.55
256.474 4.55
256.5074 4.55
256.5384 4.55
256.5683 4.55
256.6016 4.55
256.6322 4.55
256.661 4.55
256.69 4.55
256.7234 4.55
256.7567 4.55
256.7831 4.55
256.8116 4.55
256.8403 4.55
256.8712 4.55
256.9013 4.55
256.9346 4.55
256.968 4.55
256.9957 4.55
257.0254 4.55
257.0564 4.55
257.0898 4.55
257.1231 4.55
257.1521 4.55
257.1854 4.55
257.2187 4.55
257.252 4.55
257.2854 4.55
257.3154 4.55
257.3438 4.55
257.373 4.55
257.4064 4.55
257.4357 4.55
257.4664 4.55
257.4937 4.55
257.5212 4.55
257.5528 4.55
257.5862 4.55
257.615 4.55
257.6446 4.55
257.678 4.55
257.709 4.55
257.7424 4.55
257.7749 4.55
257.8059 4.55
257.8355 4.55
257.8645 4.55
257.8978 4.55
257.9307 4.55
257.9588 4.55
257.9868 4.55
258.0171 4.55
258.0504 4.55
258.083 4.55
258.1121 4.55
258.1394 4.55
258.1692 4.55
258.2025 4.55
258.2321 4.55
258.26 4.55
258.2901 4.55
258.3208 4.55
258.3541 4.55
258.3814 4.55
258.4148 4.55
258.4436 4.55
258.477 4.55
258.5103 4.55
258.5387 4.55
258.572 4.55
258.5996 4.55
258.6271 4.55
258.6605 4.55
258.6909 4.55
258.7224 4.55
258.7557 4.55
258.7882 4.55
258.8216 4.55
258.8504 4.55
258.8814 4.55
258.9102 4.55
258.9421 4.55
258.9754 4.55
259.0023 4.55
259.0332 4.55
259.0665 4.55
259.0998 4.55
259.1313 4.55
259.1594 4.55
259.1899 4.55
259.2191 4.55
259.2465 4.55
259.2798 4.55
259.3132 4.55
259.3465 4.55
259.375 4.55
259.4078 4.55
259.4388 4.55
259.4721 4.55
259.4982 4.55
259.5267 4.55
259.5573 4.55
259.5871 4.55
259.6195 4.55
259.6519 4.55
259.684 4.55
259.717 4.55
259.7466 4.55
259.78 4.55
259.8133 4.55
259.8406 4.55
259.8677 4.55
259.9001 4.55
259.9334 4.55
259.9632 4.55
259.9904 4.55
260.0194 4.55
260.0487 4.55
260.082 4.55
260.1144 4.55
260.1454 4.55
260.1787 4.55
260.208 4.55
260.2413 4.55
260.2717 4.55
260.305 4.55
260.336 4.55
260.3646 4.55
260.3979 4.55
260.427 4.55
260.4545 4.55
260.4816 4.55
260.5108 4.55
260.5441 4.55
260.5771 4.55
260.6091 4.55
260.6395 4.55
260.6706 4.55
260.7029 4.55
260.7362 4.55
260.7686 4.55
260.801 4.55
260.8343 4.55
260.8664 4.55
260.8997 4.55
260.931 4.55
260.9599 4.55
260.9901 4.55
261.0205 4.55
261.0539 4.55
261.0823 4.55
261.1114 4.55
261.1412 4.55
261.173 4.55
261.2063 4.55
261.2332 4.55
261.2665 4.55
261.2972 4.55
261.33 4.55
261.3633 4.55
261.3941 4.55
261.4251 4.55
261.4545 4.55
261.4821 4.55
261.5154 4.55
261.5443 4.55
261.5759 4.55
261.6073 4.55
261.6378 4.55
261.6711 4.55
261.6992 4.55
261.7296 4.55
261.7582 4.55
261.7872 4.55
261.8205 4.55
261.8474 4.55
261.8807 4.55
261.914 4.55
261.9474 4.55
261.9807 4.55
262.0129 4.55
262.0458 4.55
262.0733 4.55
262.1011 4.55
262.1344 4.55
262.1642 4.55
262.1934 4.55
262.2209 4.55
262.2494 4.55
262.2827 4.55
262.3155 4.55
262.3488 4.55
262.3822 4.55
262.4101 4.55
262.4396 4.55
262.4729 4.55
262.5063 4.55
262.537 4.55
262.5651 4.55
262.5946 4.55
262.628 4.55
262.6566 4.55
262.6837 4.55
262.7159 4.55
262.7492 4.55
262.7825 4.55
262.8117 4.55
262.8388 4.55
262.8707 4.55
262.904 4.55
262.9373 4.55
262.9705 4.55
263.0002 4.55
263.0335 4.55
263.0656 4.55
263.0989 4.55
263.1316 4.55
263.1617 4.55
263.194 4.55
263.2232 4.55
263.2566 4.55
263.2899 4.55
263.3188 4.55
263.3521 4.55
263.3854 4.55
263.4188 4.55
263.4496 4.55
263.4769 4.55
263.5072 4.55
263.5406 4.55
263.5739 4.55
263.6043 4.55
263.6335 4.55
263.6619 4.55
263.6919 4.55
263.7253 4.55
263.7551 4.55
263.7841 4.55
263.8175 4.55
263.8455 4.55
263.8788 4.55
263.9122 4.55
263.9409 4.55
263.9704 4.55
264.0034 4.55
264.0368 4.55
264.0643 4.55
264.092 4.55
264.121 4.55
264.1497 4.55
264.1802 4.55
264.2135 4.55
264.2469 4.55
264.2791 4.55
264.3106 4.55
264.3409 4.55
264.3742 4.55
264.4041 4.55
264.4314 4.55
264.4647 4.55
264.4968 4.55
264.5302 4.55
264.5601 4.55
264.5919 4.55
264.6209 4.55
264.6519 4.55
264.6853 4.55
264.7186 4.55
264.7489 4.55
264.7788 4.55
264.8074 4.55
264.8395 4.55
264.868 4.55
264.8968 4.55
264.9301 4.55
264.9578 4.55
264.9911 4.55
265.0244 4.55
265.0533 4.55
265.0814 4.55
265.1119 4.55
265.1452 4.55
265.1744 4.55
265.2041 4.55
265.2374 4.55
265.2698 4.55
265.3031 4.55
265.3309 4.55
265.3591 4.55
265.3915 4.55
265.4197 4.55
265.453 4.55
265.4821 4.55
265.5126 4.55
265.5454 4.55
265.5768 4.55
265.6102 4.55
265.6435 4.55
265.6725 4.55
265.7041 4.55
265.7374 4.55
265.7707 4.55
265.8027 4.55
265.8301 4.55
265.8588 4.55
265.8886 4.55
265.9219 4.55
265.9485 4.55
265.9768 4.55
266.0102 4.55
266.041 4.55
266.0744 4.55
266.1068 4.55
266.1401 4.55
266.1683 4.55
266.1965 4.55
266.2299 4.55
266.2596 4.55
266.2896 4.55
266.3166 4.55
266.3497 4.55
266.383 4.55
266.4114 4.55
266.439 4.55
266.4723 4.55
266.5019 4.55
266.5352 4.55
266.562 4.55
266.5933 4.55
266.6222 4.55
266.6546 4.55
266.688 4.55
266.7185 4.55
266.7518 4.55
266.7852 4.55
266.818 4.55
266.847 4.55
266.8753 4.55
266.9083 4.55
266.9416 4.55
266.9749 4.55
267.0083 4.55
267.0367 4.55
267.0653 4.55
267.0986 4.55
267.132 4.55
267.1595 4.55
267.1869 4.55
267.2151 4.55
267.2458 4.55
267.2791 4.55
267.3124 4.55
267.3415 4.55
267.3748 4.55
267.4032 4.55
267.4365 4.55
267.4677 4.55
267.5011 4.55
267.5335 4.55
267.562 4.55
267.5953 4.55
267.6265 4.55
267.6573 4.55
267.6862 4.55
267.7181 4.55
267.7515 4.55
267.78 4.55
267.8072 4.55
267.8397 4.55
267.8687 4.55
267.9021 4.55
267.9294 4.55
267.9626 4.55
267.994 4.55
268.0234 4.55
268.0568 4.55
268.0848 4.55
268.1181 4.55
268.1515 4.55
268.1822 4.55
268.2155 4.55
268.246 4.55
268.2758 4.55
268.3035 4.55
268.3334 4.55
268.3668 4.55
268.3972 4.55
268.4305 4.55
268.463 4.55
268.4922 4.55
268.5255 4.55
268.5526 4.55
268.5846 4.55
268.6154 4.55
268.6488 4.55
268.6821 4.55
268.7128 4.55
268.7439 4.55
268.7772 4.55
268.8044 4.55
268.8377 4.55
268.8669 4.55
268.8948 4.55
268.9244 4.55
268.9532 4.55
268.9864 4.55
269.0197 4.55
269.0477 4.55
269.0768 4.55
269.1065 4.55
269.1363 4.55
269.1686 4.55
269.1974 4.55
269.2298 4.55
269.259 4.55
269.2874 4.55
269.3208 4.55
269.3541 4.55
269.3836 4.55
269.4121 4.55
269.4452 4.55
269.4785 4.55
269.5079 4.55
269.5343 4.55
269.567 4.55
269.5987 4.55
269.632 4.55
269.6653 4.55
269.6954 4.55
269.7247 4.55
269.7526 4.55
269.7859 4.55
269.815 4.55
269.8477 4.55
269.8769 4.55
269.9047 4.55
269.938 4.55
269.968 4.55
269.9964 4.55
270.0282 4.55
270.0615 4.55
270.0948 4.55
270.1245 4.55
270.1579 4.55
270.1897 4.55
270.2228 4.55
270.2562 4.55
270.2895 4.55
270.3223 4.55
270.3548 4.55
270.3842 4.55
270.4175 4.55
270.4509 4.55
270.4842 4.55
270.517 4.55
270.5469 4.55
270.5802 4.55
270.6117 4.55
270.6394 4.55
270.6677 4.55
270.6995 4.55
270.7328 4.55
270.7657 4.55
270.799 4.55
270.8283 4.55
270.8605 4.55
270.8938 4.55
270.9272 4.55
270.9589 4.55
270.9908 4.55
271.0218 4.35
271.0551 4.35
271.0843 4.35
271.1129 4.35
271.1406 4.35
271.1686 4.35
271.1977 4.15
271.231 4.15
271.2615 3.9
271.293 3.9
271.3225 3.7
271.3519 3.45
271.3853 3.45
271.4146 3.25
271.4444 3.25
271.4772 3.25
271.5071 3.25
271.5404 3.25
271.572 3.25
271.6015 3.25
271.6348 3.25
271.6642 3.25
271.6975 3.25
271.7299 3.25
271.7632 3.25
271.7923 3.25
271.822 3.25
271.8554 3.25
271.8856 3.25
271.9189 3.25
271.9523 3.25
271.9821 3.25
272.0154 3.25
272.042 3.25
272.0753 3.25
272.1037 3.25
272.1322 3.25
272.1655 3.25
272.1948 3.25
272.223 3.25
272.2514 3.25
272.2816 3.05
272.3149 3.05
272.3438 3.05
272.3732 3.05
272.4018 3.05
272.4333 3.05
272.4666 3.05
272.4961 3.05
272.5244 3.05
272.5554 3.05
272.5848 3.05
272.6181 3.05
272.6455 3.05
272.6789 3.05
272.7085 3.05
272.7414 3.05
272.7748 3.05
272.8081 3.05
272.8409 3.05
272.8721 3.05
272.9023 3.05
272.9356 3.05
272.9647 3.05
272.9948 3.05
273.0258 3.05
273.0547 3.05
273.0881 3.05
273.121 3.05
273.1479 3.05
273.1772 3.05
273.2064 3.05
273.2398 3.05
273.2679 3.05
273.2962 3.05
273.3261 3.05
273.3542 3.05
273.3875 3.05
273.4209 3.05
273.4501 3.05
273.4778 3.05
273.5069 3.05
273.5403 3.05
273.5691 3.05
273.5986 3.05
273.6286 3.05
273.6584 3.05
273.6918 3.05
273.7234 3.05
273.7549 3.05
273.7882 3.05
273.8201 3.05
273.8534 3.05
273.88 3.05
273.911 3.05
273.9433 3.05
273.9756 3.05
274.009 3.05
274.0416 3.05
274.0721 3.05
274.1018 3.05
274.1347 3.05
274.168 3.05
274.2014 3.05
274.2298 3.05
274.2569 3.05
274.2903 3.05
274.3236 3.05
274.3542 3.05
274.3835 3.05
274.4127 3.05
274.4438 3.05
274.4771 3.05
274.5049 3.05
274.5363 3.05
274.5659 3.05
274.5951 3.05
274.6284 3.25
274.6581 3.25
274.6867 3.25
274.7145 3.25
274.7418 3.25
274.7751 3.25
274.8084 3.25
274.8418 3.25
274.8686 3.25
274.9019 3.45
274.9321 3.45
274.9655 3.45
274.9937 3.45
275.0271 3.45
275.0559 3.45
275.0892 3.45
275.1224 3.45
275.1557 3.45
275.1839 3.45
275.2137 3.45
275.2415 3.45
275.2748 3.45
275.303 3.45
275.3325 3.45
275.3593 3.45
275.3872 3.45
275.4158 3.45
275.4488 3.45
275.4789 3.45
275.5122 3.45
275.5428 3.45
275.5736 3.45
275.6069 3.45
275.6388 3.45
275.6718 3.45
275.7 3.45
275.7288 3.45
275.7621 3.45
275.7915 3.45
275.8197 3.45
275.8473 3.45
275.8765 3.45
275.9099 3.45
275.9432 3.45
275.97 3.45
276.0006 3.45
276.0297 3.45
276.0575 3.45
276.0855 3.45
276.1188 3.45
276.1512 3.45
276.1801 3.45
276.2081 3.45
276.2379 3.45
276.2712 3.45
276.2992 3.45
276.3276 3.45
276.3578 3.45
276.3886 3.45
276.4219 3.45
276.4508 3.45
276.48 3.45
276.5108 3.45
276.541 3.45
276.5744 3.45
276.6047 3.45
276.6354 3.45
276.6634 3.45
276.691 3.45
276.7244 3.45
276.7528 3.45
276.7814 3.45
276.8088 3.45
276.8389 3.45
276.8722 3.45
276.9004 3.45
276.9337 3.45
276.967 3.45
276.997 3.45
277.0299 3.45
277.0571 3.45
277.0905 3.45
277.1211 3.45
277.1544 3.45
277.1877 3.45
277.2182 3.45
277.2482 3.45
277.2816 3.45
277.3116 3.45
277.3449 3.45
277.3737 3.45
277.4071 3.45
277.4344 3.45
277.4643 3.45
277.4977 3.45
277.5258 3.45
277.558 3.45
277.5867 3.45
277.6151 3.45
277.6485 3.45
277.6818 3.45
277.7151 3.45
277.747 3.45
277.776 3.45
277.8093 3.45
277.8394 3.45
277.8686 3.45
277.8976 3.45
277.9261 3.45
277.9594 3.45
277.9927 3.45
278.0214 3.45
278.052 3.45
278.0823 3.45
278.1156 3.45
278.1435 3.45
278.1718 3.45
278.2037 3.45
278.2339 3.45
278.2672 3.45
278.2942 3.45
278.3232 3.45
278.3565 3.45
278.385 3.45
278.4184 3.45
278.4465 3.45
278.4798 3.45
278.5073 3.45
278.5376 3.45
278.5709 3.45
278.5998 3.45
278.6269 3.45
278.6565 3.45
278.6898 3.45
278.7231 3.45
278.7519 3.45
278.7852 3.45
278.8181 3.45
278.8493 3.45
278.8826 3.45
278.91 3.45
278.9433 3.45
278.9722 3.45
279.0008 3.45
279.0333 3.45
279.0651 3.45
279.0943 3.45
279.1232 3.45
279.1549 3.45
279.1883 3.45
279.2175 3.45
279.2494 3.45
279.2775 3.45
279.3108 3.45
279.3441 3.45
279.3724 3.45
279.4023 3.45
279.432 3.45
279.4632 3.45
279.4966 3.45
279.5279 3.45
279.5577 3.45
279.5865 3.45
279.6152 3.45
279.6485 3.45
279.6817 3.45
279.7104 3.45
279.7376 3.45
279.7667 3.45
279.8 3.45
279.8288 3.45
279.857 3.45
279.8896 3.45
279.9204 3.45
279.9537 3.45
279.9829 3.45
280.0162 3.45
280.0455 3.45
280.0747 3.45
280.108 3.45
280.1395 3.45
280.1681 3.45
280.1972 3.45
280.2291 3.45
280.2624 3.45
280.2957 3.45
280.3258 3.45
280.3554 3.45
280.3828 3.45
280.4161 3.45
280.4475 3.45
280.4771 3.45
280.5058 3.45
280.5349 3.45
280.5682 3.45
280.5963 3.45
280.623 3.45
280.6554 3.45
280.6867 3.45
280.72 3.45
280.7464 3.45
280.7758 3.45
280.8042 3.45
280.8375 3.45
280.8708 3.45
280.9042 3.45
280.9348 3.45
280.9636 3.45
280.9922 3.45
281.0256 3.45
281.0589 3.45
281.0866 3.45
281.1175 3.45
281.1493 3.45
281.1826 3.45
281.2107 3.45
281.242 3.45
281.2714 3.45
281.3022 3.45
281.3355 3.45
281.3653 3.45
281.3986 3.45
281.4261 3.45
281.458 3.45
281.4914 3.45
281.5247 3.45
281.558 3.45
281.5869 3.45
281.615 3.45
281.6484 3.45
281.6815 3.45
281.7109 3.45
281.7381 3.45
281.7715 3.45
281.8048 3.45
281.8381 3.45
281.8665 3.45
281.8998 3.45
281.9332 3.45
281.9665 3.45
281.9936 3.45
282.0243 3.45
282.0552 3.45
282.0885 3.45
282.1219 3.45
282.1522 3.45
282.1855 3.45
282.2145 3.45
282.2431 3.45
282.2764 3.45
282.3056 3.45
282.336 3.45
282.3635 3.45
282.392 3.45
282.4253 3.45
282.4542 3.45
282.4816 3.45
282.5136 3.45
282.5438 3.45
282.5771 3.45
282.61 3.45
282.6433 3.45
282.6719 3.45
282.6999 3.45
282.7332 3.45
282.7615 3.45
282.7904 3.45
282.819 3.45
282.8523 3.45
282.8857 3.45
282.9149 3.45
282.9482 3.45
282.9747 3.45
283.0081 3.45
283.0414 3.45
283.0747 3.45
283.1027 3.45
283.1325 3.45
283.163 3.45
283.1963 3.45
283.2228 3.45
283.2523 3.45
283.2826 3.45
283.3109 3.45
283.3442 3.45
283.3731 3.45
283.4065 3.45
283.435 3.45
283.4636 3.45
283.4969 3.45
283.5302 3.45
283.5587 3.45
283.5879 3.45
283.6163 3.45
283.6496 3.45
283.6796 3.45
283.7129 3.45
283.7458 3.45
283.7741 3.45
283.8075 3.45
283.8342 3.45
283.8672 3.45
283.8982 3.45
283.9291 3.45
283.9609 3.45
283.9942 3.45
284.0276 3.45
284.0596 3.45
284.093 3.45
284.1263 3.45
284.1559 3.45
284.1892 3.45
284.2195 3.45
284.2497 3.45
284.2831 3.45
284.3133 3.45
284.3459 3.45
284.3772 3.45
284.4067 3.45
284.44 3.45
284.4662 3.45
284.4996 3.45
284.5311 3.45
284.5645 3.45
284.5978 3.45
284.6311 3.45
284.6634 3.45
284.6933 3.45
284.7267 3.45
284.76 3.45
284.7885 3.45
284.8218 3.45
284.8492 3.45
284.8809 3.45
284.9142 3.45
284.9442 3.45
284.9766 3.45
285.009 3.45
285.042 3.45
285.0753 3.45
285.1043 3.45
285.1374 3.45
285.1693 3.45
285.2025 3.45
285.2358 3.45
285.2671 3.45
285.297 3.45
285.3249 3.45
285.3512 3.45
285.3805 3.45
285.4138 3.45
285.4432 3.45
285.4766 3.45
285.5063 3.45
285.5368 3.45
285.5702 3.45
285.6 3.45
285.6315 3.45
285.6646 3.45
285.6979 3.45
285.7312 3.45
285.7619 3.45
285.7903 3.45
285.8194 3.45
285.8524 3.45
285.8858 3.45
285.915 3.45
285.9452 3.45
285.9719 3.45
286.0002 3.45
286.0316 3.45
286.0649 3.45
286.092 3.45
286.1237 3.45
286.1548 3.45
286.1881 3.45
286.2215 3.45
286.2509 3.45
286.2817 3.45
286.3103 3.45
286.3436 3.45
286.377 3.45
286.4055 3.45
286.4389 3.45
286.469 3.45
286.4994 3.45
286.5327 3.45
286.5606 3.45
286.5889 3.45
286.6209 3.45
286.6542 3.45
286.6876 3.45
286.7155 3.45
286.7447 3.45
286.7768 3.45
286.8046 3.45
286.8379 3.45
286.8712 3.45
286.9017 3.45
286.9289 3.45
286.9584 3.45
286.9918 3.45
287.0251 3.45
287.0524 3.45
287.0808 3.45
287.1107 3.45
287.144 3.45
287.1749 3.45
287.2083 3.45
287.2381 3.45
287.2692 3.45
287.3025 3.45
287.3358 3.45
287.3687 3.45
287.4007 3.45
287.4295 3.45
287.4628 3.45
287.4927 3.45
287.526 3.45
287.5553 3.45
287.5857 3.45
287.619 3.45
287.649 3.45
287.6783 3.45
287.7078 3.45
287.7411 3.45
287.7745 3.45
287.8029 3.45
287.8363 3.45
287.8676 3.45
287.8994 3.45
287.9325 3.45
287.9594 3.45
287.9917 3.45
288.0199 3.45
288.0527 3.45
288.086 3.45
288.1193 3.45
288.1496 3.45
288.1818 3.45
288.2151 3.45
288.2485 3.45
288.278 3.45
288.3113 3.45
288.3432 3.45
288.3735 3.45
288.4069 3.45
288.4402 3.45
288.467 3.45
288.4989 3.45
288.5304 3.45
288.5637 3.45
288.5915 3.45
288.6198 3.45
288.6495 3.45
288.679 3.45
288.7124 3.45
288.7418 3.45
288.7734 3.45
288.8067 3.45
288.8352 3.45
288.8686 3.45
288.8998 3.45
288.9279 3.45
288.9547 3.45
288.9857 3.45
289.019 3.45
289.0472 3.45
289.0805 3.45
289.1115 3.45
289.1449 3.45
289.1782 3.45
289.2111 3.45
289.2442 3.45
289.2721 3.45
289.3033 3.45
289.3366 3.45
289.3661 3.45
289.3954 3.45
289.4236 3.45
289.4513 3.45
289.4805 3.45
289.5138 3.45
289.5415 3.45
289.5713 3.45
289.6024 3.45
289.6313 3.45
289.6646 3.45
289.6915 3.45
289.7223 3.45
289.7522 3.45
289.7822 3.45
289.8156 3.45
289.8489 3.45
289.8774 3.45
289.9063 3.45
289.9375 3.45
289.9708 3.45
290.0002 3.45
290.0314 3.45
290.0613 3.45
290.0902 3.45
290.1236 3.45
290.1564 3.45
290.1842 3.45
290.2141 3.45
290.2452 3.45
290.2785 3.45
290.3062 3.45
290.3396 3.45
290.3727 3.45
290.406 3.45
290.4394 3.45
290.4694 3.45
290.5004 3.45
290.5283 3.45
290.5575 3.45
290.5908 3.45
290.6196 3.45
290.6478 3.45
290.676 3.45
290.7063 3.45
290.7397 3.7
290.7686 3.7
290.8008 3.7
290.8334 3.7
290.865 3.7
290.8983 3.7
290.9283 3.7
290.9616 3.7
290.9949 3.7
291.0237 3.7
291.0571 3.7
291.0866 3.7
291.115 3.7
291.1425 3.7
291.1757 3.7
291.209 3.7
291.2386 3.7
291.2677 3.7
291.2955 3.7
291.3289 3.7
291.3622 3.05
291.3951 3.05
291.4227 1.95
291.4509 1.95
291.4825 0.85
291.5158 -0.2
291.5421 -0.2
291.5707 -0.4
291.6037 -0.4
291.6371 -0.4
291.6704 -0.4
291.6994 -0.4
291.73 -0.4
291.7625 -0.4
291.7901 -0.4
291.8234 -0.4
291.856 -0.4
291.8876 -0.4
291.9169 -0.4
291.9478 -0.4
291.9811 -0.4
292.0115 -0.4
292.0428 -0.4
292.0723 -0.4
292.1056 -0.4
292.1389 -0.4
292.1721 -0.4
292.2019 -0.4
292.231 -0.4
292.2599 -0.4
292.2932 -0.4
292.3217 -0.4
292.3504 -0.4
292.3824 -0.4
292.4114 -0.4
292.4447 -0.4
292.4776 -0.4
292.5099 -0.4
292.5396 -0.4
292.5712 -0.4
292.6046 -0.4
292.6316 -0.4
292.658 -0.4
292.6913 -0.4
292.7195 -0.4
292.7526 -0.4
292.7801 -0.4
292.8085 -0.4
292.8418 -0.4
292.8723 -0.4
292.9056 -0.4
292.939 -0.4
292.972 -0.4
292.9999 -0.4
293.0276 -0.4
293.061 -0.4
293.0898 -0.4
293.1208 -0.4
293.1541 -0.4
293.1875 -0.4
293.2208 -0.4
293.2523 -0.4
293.2818 -0.4
293.3151 -0.4
293.3452 -0.4
293.3785 -0.4
293.4095 -0.4
293.4428 -0.4
293.4749 -0.4
293.5082 -0.4
293.5416 -0.4
293.571 -0.4
293.6017 -0.4
293.6331 -0.4
293.6602 -0.4
293.6935 -0.4
293.7222 -0.4
293.752 -0.4
293.7833 -0.4
293.8116 -0.4
293.8449 -0.4
293.8778 -0.4
293.9061 -0.4
293.9378 -0.4
293.9712 -0.4
294.0045 -0.4
294.032 -0.4
294.0604 -0.4
294.093 -0.4
294.1215 -0.4
294.1548 -0.4
294.1844 -0.4
294.2149 -0.4
294.2445 -0.4
294.2715 -0.4
294.3048 -0.4
294.3357 -0.4
294.3667 -0.4
294.3938 -0.4
294.4267 -0.4
294.4601 -0.4
294.4908 -0.4
294.5223 -0.4
294.5557 -0.4
294.5873 -0.4
294.6206 -0.4
294.6482 -0.4
294.6783 -0.4
294.7078 -0.4
294.7365 -0.4
294.7698 -0.4
294.8032 -0.4
294.8365 -0.4
294.8686 -0.4
294.8959 -0.4
294.9292 -0.4
294.9608 -0.4
294.9924 -0.4
295.0225 -0.4
295.0535 -0.4
295.0869 -0.4
295.1191 -0.4
295.1503 -0.4
295.1826 -0.4
295.2159 -0.4
295.2493 -0.4
295.2826 -0.4
295.3153 -0.4
295.3485 -0.4
295.3774 -0.4
295.4107 -0.4
295.4401 -0.4
295.47 -0.4
295.4991 -0.4
295.5269 -0.4
295.5602 -0.4
295.5898 -0.4
295.6232 -0.4
295.6556 -0.4
295.689 -0.4
295.7223 -0.4
295.7497 -0.4
295.7773 -0.4
295.8063 -0.4
295.8353 -0.4
295.8641 -0.4
295.8974 -0.4
295.9258 -0.4
295.9544 -0.4
295.9824 -0.4
296.0143 -0.4
296.0476 -0.4
296.0777 -0.4
296.106 -0.4
296.1332 -0.4
296.1632 -0.4
296.1965 -0.4
296.2249 -0.4
296.252 -0.4
296.2853 -0.4
296.3187 -0.4
296.352 -0.4
296.3788 -0.4
296.4068 -0.4
296.4388 -0.4
296.4715 -0.4
296.5048 -0.4
296.535 -0.4
296.5671 -0.4
296.5954 -0.4
296.6287 -0.4
296.662 -0.4
296.6946 -0.4
296.7234 -0.4
296.7525 -0.4
296.7817 -0.4
296.8151 -0.4
296.8455 -0.4
296.8732 -0.4
296.9024 -0.4
296.9317 -0.4
296.965 -0.4
296.9911 -0.4
297.0216 -0.4
297.0517 -0.4
297.0851 -0.4
297.1184 -0.4
297.1517 -0.4
297.1813 -0.4
297.2139 -0.4
297.2442 -0.4
297.2775 -0.4
297.3068 -0.4
297.3367 -0.4
297.37 -0.4
297.3999 -0.4
297.4332 -0.4
297.4639 -0.4
297.4927 -0.4
297.5217 -0.4
297.5536 -0.4
297.5869 -0.4
297.6158 -0.4
297.6473 -0.4
297.6797 -0.4
297.713 -0.4
297.7464 -0.4
297.7773 -0.4
297.8076 -0.4
297.835 -0.4
297.8642 -0.4
297.8975 -0.4
297.9308 -0.4
297.9588 -0.4
297.9868 -0.4
298.0201 -0.4
298.0534 -0.4
298.0812 -0.4
298.1127 -0.4
298.1412 -0.4
298.1739 -0.4
298.2072 -0.4
298.236 -0.4
298.2693 -0.4
298.2984 -0.4
298.3275 -0.4
298.3608 -0.4
298.3903 -0.4
298.4236 -0.4
298.4524 -0.4
298.482 -0.4
298.5153 -0.4
298.5476 -0.4
298.5764 -0.4
298.6072 -0.4
298.6405 -0.4
298.6739 -0.4
298.7025 -0.4
298.7358 -0.4
298.7655 -0.4
298.798 -0.4
298.8314 -0.4
298.8622 -0.4
298.8906 -0.4
298.922 -0.4
298.9513 -0.4
298.9844 -0.4
299.0129 -0.4
299.041 -0.4
299.0715 -0.4
299.0987 -0.4
299.1299 -0.4
299.1633 -0.4
299.1966 -0.4
299.2281 -0.4
299.2585 -0.4
299.2918 -0.4
299.3251 -0.4
299.3543 -0.4
299.3873 -0.4
299.4192 -0.4
299.4519 -0.4
299.4844 -0.4
299.5129 -0.4
299.5437 -0.4
299.573 -0.4
299.6009 -0.4
299.6327 -0.4
299.666 -0.4
299.6987 -0.4
299.7259 -0.4
299.7554 -0.4
299.7887 -0.4
299.8221 -0.4
299.8513 -0.4
299.8805 -0.4
299.9085 -0.4
299.9362 -0.4
299.9696 -0.4
300.0029 -0.4
300.0322 -0.4
300.0656 -0.4
300.0926 -0.4
300.126 -0.4
300.1553 -0.4
300.1878 -0.4
300.2156 -0.4
300.2452 -0.4
300.2785 -0.4
300.3107 -0.4
300.3423 -0.4
300.3724 -0.4
300.4041 -0.4
300.4375 -0.4
300.4708 -0.4
300.5023 -0.4
300.5316 -0.4
300.5643 -0.4
300.5977 -0.4
300.6288 -0.4
300.6607 -0.4
300.6904 -0.4
300.7209 -0.4
300.7542 -0.4
300.7833 -0.4
300.8144 -0.4
300.8435 -0.4
300.8736 -0.4
300.907 -0.4
300.9356 -0.4
300.9656 -0.4
300.995 -0.4
301.0243 -0.4
301.0572 -0.4
301.0868 -0.4
301.1201 -0.4
301.1488 -0.4
301.1786 -0.4
301.2119 -0.4
301.2453 -0.4
301.2742 -0.4
301.3017 -0.4
301.3303 -0.4
301.3636 -0.4
301.397 -0.4
301.427 -0.4
301.4563 -0.4
301.4846 -0.4
301.5179 -0.4
301.5513 -0.4
301.5775 -0.4
301.6072 -0.4
301.6383 -0.4
301.6716 -0.4
301.7027 -0.4
301.731 -0.4
301.7625 -0.4
301.7908 -0.4
301.8242 -0.4
301.8554 -0.4
301.8887 -0.4
301.9166 -0.4
301.9483 -0.4
301.9816 -0.4
302.0146 -0.4
302.0441 -0.4
302.0736 -0.4
302.1031 -0.4
302.1364 -0.4
302.1657 -0.4
302.1959 -0.4
302.2292 -0.4
302.2605 -0.4
302.2933 -0.4
302.3226 -0.4
302.3557 -0.4
302.3858 -0.4
302.4152 -0.4
302.4485 -0.4
302.4819 -0.4
302.5118 -0.4
302.542 -0.4
302.5693 -0.4
302.6026 -0.4
302.6359 -0.4
302.6629 -0.4
302.6903 -0.4
302.7207 -0.4
302.7541 -0.4
302.7829 -0.4
302.8092 -0.4
302.8408 -0.4
302.8738 -0.4
302.9071 -0.4
302.9369 -0.4
302.9702 -0.4
303.0008 -0.4
303.0315 -0.4
303.0648 -0.4
303.0981 -0.4
303.1272 -0.4
303.1562 -0.4
303.186 -0.4
303.2193 -0.4
303.2514 -0.4
303.2822 -0.4
303.3106 -0.4
303.3414 -0.4
303.3748 -0.4
303.4028 -0.4
303.4328 -0.4
303.4616 -0.4
303.4926 -0.4
303.526 -0.4
303.5544 -0.4
303.5863 -0.4
303.6162 -0.4
303.6474 -0.4
303.6807 -0.4
303.7113 -0.4
303.7447 -0.4
303.7756 -0.4
303.8036 -0.4
303.8369 -0.4
303.8658 -0.4
303.8969 -0.4
303.9301 -0.4
303.9633 -0.4
303.9967 -0.4
304.0266 -0.4
304.0573 -0.4
304.0906 -0.4
304.123 -0.4
304.156 -0.4
304.1824 -0.4
304.2108 -0.4
304.2422 -0.4
304.2716 -0.4
304.3025 -0.4
304.3358 -0.4
304.3692 -0.4
304.3973 -0.4
304.4244 -0.4
304.4567 -0.4
304.4901 -0.4
304.521 -0.4
304.5519 -0.4
304.5822 -0.4
304.6155 -0.4
304.6489 -0.4
304.6795 -0.4
304.7105 -0.4
304.7439 -0.4
304.772 -0.4
304.8054 -0.4
304.8338 -0.4
304.8655 -0.4
304.8944 -0.4
304.9225 -0.4
304.9559 -0.4
304.9861 -0.4
305.016 -0.4
305.0439 -0.4
305.0719 -0.4
305.1053 -0.4
305.1386 -0.4
305.1659 -0.4
305.1992 -0.4
305.2325 -0.4
305.2659 -0.4
305.295 -0.4
305.3247 -0.4
305.3543 -0.4
305.385 -0.4
305.4181 -0.4
305.4483 -0.4
305.4776 -0.4
305.511 -0.4
305.5401 -0.4
305.5734 -0.4
305.6035 -0.4
305.6318 -0.4
305.6644 -0.4
305.6942 -0.4
305.7275 -0.4
305.7588 -0.4
305.7857 -0.4
305.819 -0.4
305.8513 -0.4
305.8844 -0.4
305.9178 -0.4
305.9461 -0.4
305.9766 -0.4
306.0051 -0.4
306.0384 -0.4
306.0676 -0.4
306.1005 -0.4
306.1308 -0.4
306.1641 -0.4
306.1974 -0.4
306.2303 -0.4
306.258 -0.4
306.2859 -0.4
306.3157 -0.4
306.3491 -0.4
306.3779 -0.4
306.405 -0.4
306.4376 -0.4
306.4692 -0.4
306.5025 -0.4
306.5353 -0.4
306.5686 -0.4
306.5993 -0.4
306.6283 -0.4
306.6617 -0.4
306.6931 -0.4
306.7227 -0.4
306.7499 -0.4
306.7777 -0.4
306.811 -0.4
306.8413 -0.4
306.8729 -0.4
306.9012 -0.4
306.9345 -0.4
306.9678 -0.4
306.9977 -0.4
307.025 -0.4
307.0533 -0.4
307.0866 -0.4
307.12 -0.4
307.1489 -0.4
307.179 -0.4
307.2091 -0.4
307.2379 -0.4
307.2708 -0.4
307.3037 -0.4
307.3322 -0.4
307.3608 -0.4
307.3925 -0.4
307.4258 -0.4
307.4583 -0.4
307.4861 -0.4
307.516 -0.4
307.5443 -0.4
307.5777 -0.4
307.6055 -0.4
307.6339 -0.4
307.6667 -0.4
307.7 -0.4
307.7333 -0.4
307.7628 -0.4
307.7924 -0.4
307.8258 -0.4
307.8573 -0.4
307.8904 -0.4
307.9237 -0.4
307.9526 -0.4
307.9815 -0.4
308.0115 -0.4
308.0448 -0.4
308.0751 -0.4
308.1055 -0.4
308.1342 -0.4
308.1645 -0.4
308.1978 -0.4
308.2255 -0.4
308.2556 -0.4
308.2846 -0.4
308.3139 -0.4
308.3472 -0.4
308.3765 -0.4
308.4055 -0.4
308.4388 -0.4
308.4691 -0.4
308.5025 -0.4
308.5345 -0.4
308.5629 -0.4
308.5916 -0.4
308.6188 -0.4
308.6522 -0.4
308.685 -0.4
308.7157 -0.4
308.7439 -0.4
308.7745 -0.4
308.8079 -0.4
308.8412 -0.4
308.8695 -0.4
308.8985 -0.4
308.9318 -0.4
308.9651 -0.4
308.9967 -0.4
309.026 -0.4
309.055 -0.4
309.0882 -0.4
309.1215 -0.4
309.1548 -0.4
309.1881 -0.4
309.2214 -0.4
309.2502 -0.4
309.2836 -0.4
309.3156 -0.4
309.3471 -0.4
309.3804 -0.4
309.4104 -0.4
309.4437 -0.4
309.4771 -0.4
309.504 -0.4
309.5324 -0.4
309.5641 -0.4
309.5974 -0.4
309.6254 -0.4
309.6574 -0.4
309.6894 -0.4
309.7192 -0.4
309.7526 -0.4
309.7826 -0.4
309.8159 -0.4
309.846 -0.4
309.8728 -0.4
309.9062 -0.4
309.9392 -0.4
309.9682 -0.4
310.0002 -0.4
310.0331 -0.4
310.0664 -0.4
310.0951 -0.4
310.1241 -0.4
310.153 -0.4
310.1851 -0.4
310.2184 -0.4
310.2461 -0.4
310.2794 -0.4
310.3115 -0.4
310.3448 -0.4
310.3781 -0.4
310.409 -0.4
310.4416 -0.4
310.4749 -0.4
310.5049 -0.4
310.5383 -0.4
310.5716 -0.4
310.6049 -0.4
310.6382 -0.4
310.6716 -0.4
310.7049 -0.4
310.7383 -0.4
310.7673 -0.4
310.8007 -0.4
310.833 -0.4
310.8663 -0.4
310.899 -0.4
310.9313 -0.4
310.9603 -0.4
310.9928 -0.4
311.0262 -0.4
311.0578 -0.4
311.0867 -0.4
311.1154 -0.4
311.1439 -0.4
311.1772 -0.4
311.2082 -0.4
311.2372 -0.4
311.2706 -0.4
311.3011 -0.4
311.3345 -0.4
311.3627 -0.4
311.3916 -0.4
311.4237 -0.4
311.4538 -0.4
311.4871 -0.4
311.5148 -0.4
311.5482 -0.4
311.5764 -0.4
311.6068 -0.4
311.6401 -0.4
311.6723 -0.4
311.7013 -0.4
311.7314 -0.4
311.7588 -0.4
311.7921 -0.4
311.8219 -0.4
311.8552 -0.4
311.8858 -0.4
311.9186 -0.4
311.9519 -0.4
311.9835 -0.4
312.0106 -0.4
312.0434 -0.4
312.0718 -0.4
312.1052 -0.4
312.1322 -0.4
312.1636 -0.4
312.192 -0.4
312.2253 -0.4
312.2586 -0.4
312.2886 -0.4
312.3204 -0.4
312.3483 -0.4
312.3783 -0.4
312.4117 -0.4
312.4444 -0.4
312.4771 -0.4
312.5044 -0.4
312.5377 -0.4
312.571 -0.4
312.6018 -0.4
312.6351 -0.4
312.6661 -0.4
312.6994 -0.4
312.7328 -0.4
312.7624 -0.4
312.7926 -0.4
312.8234 -0.4
312.8528 -0.4
312.8862 -0.4
312.9153 -0.4
312.9449 -0.4
312.9747 -0.4
313.0014 -0.4
313.0347 -0.4
313.0641 -0.4
313.0963 -0.4
313.1262 -0.4
313.1559 -0.4
313.1893 -0.4
313.2167 -0.4
313.2486 -0.4
313.2792 -0.4
313.3108 -0.4
313.3441 -0.4
313.3752 -0.4
313.4086 -0.4
313.4386 -0.4
313.47 -0.4
313.5033 -0.4
313.5367 -0.4
313.5671 -0.4
313.5988 -0.4
313.6274 -0.4
313.6607 -0.4
313.6909 -0.4
313.7188 -0.4
313.7502 -0.4
313.7788 -0.4
313.8122 -0.4
313.8417 -0.4
313.8751 -0.4
313.9041 -0.4
313.9375 -0.4
313.9708 -0.4
314.0018 -0.4
314.0352 -0.4
314.065 -0.4
314.0936 -0.4
314.1269 -0.4
314.1563 -0.4
314.1848 -0.4
314.2148 -0.4
314.243 -0.4
314.2764 -0.4
314.3094 -0.4
314.3375 -0.4
314.365 -0.4
314.3983 -0.4
314.4317 -0.4
314.4604 -0.4
314.4897 -0.4
314.5202 -0.4
314.5528 -0.4
314.5861 -0.4
314.6186 -0.4
314.652 -0.4
314.6801 -0.4
314.7087 -0.4
314.7421 -0.4
314.7711 -0.4
314.8045 -0.4
314.8322 -0.4
314.8605 -0.4
314.8938 -0.4
314.9272 -0.4
314.9575 -0.4
314.9856 -0.4
315.0174 -0.4
315.0508 -0.4
315.081 -0.4
315.1094 -0.4
315.1378 -0.4
315.1672 -0.4
315.2005 -0.4
315.2323 -0.4
315.2601 -0.4
315.2899 -0.4
315.3215 -0.4
315.3549 -0.4
315.3855 -0.4
315.4168 -0.4
315.4485 -0.4
315.4791 -0.4
315.5125 -0.4
315.5452 -0.4
315.5725 -0.4
315.6058 -0.4
315.6341 -0.4
315.6674 -0.4
315.6966 -0.4
315.7255 -0.4
315.7542 -0.4
315.7832 -0.4
315.8166 -0.4
315.8437 -0.4
315.8752 -0.4
315.9046 -0.4
315.9377 -0.4
315.971 -0.4
316.0031 -0.4
316.0326 -0.4
316.0608 -0.4
316.0893 -0.4
316.1227 -0.4
316.156 -0.4
316.1844 -0.4
316.2116 -0.4
316.2436 -0.4
316.2769 -0.4
316.3097 -0.4
316.3405 -0.4
316.372 -0.4
316.4032 -0.4
316.4366 -0.4
316.4664 -0.4
316.4945 -0.4
316.5238 -0.4
316.5538 -0.4
316.5872 -0.4
316.6166 -0.4
316.6452 -0.4
316.6786 -0.4
316.7051 -0.4
316.7385 -0.4
316.7718 -0.4
316.8012 -0.4
316.8291 -0.4
316.8581 -0.4
316.8914 -0.4
316.9205 -0.4
316.9512 -0.4
316.9815 -0.4
317.0142 -0.4
317.0475 -0.4
317.0793 -0.4
317.1126 -0.4
317.1459 -0.4
317.1759 -0.4
317.2093 -0.4
317.2404 -0.4
317.2703 -0.4
317.2986 -0.4
317.3265 -0.4
317.3598 -0.4
317.3891 -0.4
317.4224 -0.4
317.4548 -0.4
317.4843 -0.4
317.5176 -0.4
317.5479 -0.4
317.5812 -0.4
317.6145 -0.4
317.6479 -0.4
317.6812 -0.4
317.7085 -0.4
317.7402 -0.4
317.7736 -0.4
317.8045 -0.4
317.8379 -0.4
317.8712 -0.4
317.9002 -0.4
317.9276 -0.4
317.9569 -0.4
317.9902 -0.4
318.0187 -0.4
318.0468 -0.4
318.0758 -0.4
318.1092 -0.4
318.1425 -0.4
318.1758 -0.4
318.2035 -0.4
318.2326 -0.4
318.2628 -0.4
318.2961 -0.4
318.325 -0.4
318.3549 -0.4
318.3835 -0.4
318.411 -0.4
318.4378 -0.4
318.4712 -0.4
318.5045 -0.4
318.5319 -0.4
318.5652 -0.4
318.5985 -0.4
318.6319 -0.4
318.6594 -0.4
318.6885 -0.4
318.7181 -0.4
318.7494 -0.4
318.7828 -0.4
318.8127 -0.4
318.8428 -0.4
318.8746 -0.4
318.9073 -0.4
318.9395 -0.4
318.9729 -0.4
319.005 -0.4
319.0368 -0.4
319.0643 -0.4
319.0977 -0.4
319.1298 -0.4
319.1626 -0.4
319.1923 -0.4
319.2244 -0.4
319.2577 -0.4
319.2866 -0.4
319.3183 -0.4
319.3468 -0.4
319.3754 -0.4
319.4088 -0.4
319.4377 -0.4
319.4698 -0.4
319.4995 -0.4
319.5275 -0.4
319.5608 -0.4
319.5908 -0.4
319.6198 -0.4
319.6522 -0.4
319.6817 -0.4
319.715 -0.4
319.7484 -0.4
319.778 -0.4
319.8112 -0.4
319.8407 -0.4
319.8741 -0.4
319.9019 -0.4
319.9317 -0.4
319.9606 -0.4
319.9887 -0.4
320.0221 -0.4
320.0487 -0.4
320.0788 -0.4
320.1122 -0.4
320.1455 -0.4
320.1788 -0.4
320.2104 -0.4
320.2409 -0.4
320.2685 -0.4
320.2996 -0.4
320.3329 -0.4
320.3662 -0.4
320.3965 -0.4
320.428 -0.4
320.4601 -0.4
320.4934 -0.4
320.5224 -0.4
320.5515 -0.4
320.5833 -0.4
320.613 -0.4
320.6461 -0.4
320.6742 -0.4
320.7075 -0.4
320.7401 -0.4
320.7734 -0.4
320.8067 -0.4
320.836 -0.4
320.8672 -0.4
320.8962 -0.4
320.9237 -0.4
320.957 -0.4
320.9904 -0.4
321.0175 -0.4
321.0497 -0.4
321.0783 -0.4
321.1116 -0.4
321.145 -0.4
321.1721 -0.4
321.2006 -0.4
321.2339 -0.4
321.2672 -0.4
321.2987 -0.4
321.3304 -0.4
321.3625 -0.4
321.3958 -0.4
321.4292 -0.4
321.4615 -0.4
321.4937 -0.4
321.5218 -0.4
321.5551 -0.4
321.5884 -0.4
321.6173 -0.4
321.6448 -0.4
321.6739 -0.4
321.7053 -0.4
321.7386 -0.4
321.7675 -0.4
321.7964 -0.4
321.8297 -0.4
321.863 -0.4
321.8964 -0.4
321.923 -0.4
321.9519 -0.4
321.9825 -0.4
322.0121 -0.4
322.0454 -0.4
322.0762 -0.4
322.1087 -0.4
322.1384 -0.4
322.1717 -0.4
322.205 -0.4
322.2357 -0.4
322.2661 -0.4
322.2978 -0.4
322.3306 -0.4
322.3639 -0.4
322.3937 -0.4
322.4225 -0.4
322.4507 -0.4
322.484 -0.4
322.5173 -0.4
322.5444 -0.4
322.5734 -0.4
322.6046 -0.4
322.6354 -0.4
322.6688 -0.4
322.7001 -0.4
322.7303 -0.4
322.7588 -0.4
322.7921 -0.4
322.8254 -0.4
322.8588 -0.4
322.8882 -0.4
322.9192 -0.4
322.9495 -0.4
322.9828 -0.4
323.0129 -0.4
323.04 -0.4
323.0688 -0.4
323.1021 -0.4
323.1351 -0.4
323.1659 -0.4
323.1938 -0.4
323.2231 -0.4
323.2508 -0.4
323.2794 -0.4
323.3128 -0.4
323.3405 -0.4
323.3684 -0.4
323.3956 -0.4
323.4251 -0.4
323.4584 -0.4
323.4918 -0.4
323.5217 -0.4
323.5524 -0.4
323.584 -0.4
323.6174 -0.4
323.6507 -0.4
323.6807 -0.4
323.7094 -0.4
323.7374 -0.4
323.7696 -0.4
323.8005 -0.4
323.8332 -0.4
323.8651 -0.4
323.8978 -0.4
323.9312 -0.4
323.9617 -0.4
323.9899 -0.4
324.0189 -0.4
324.0512 -0.4
324.0846 -0.4
324.1175 -0.4
324.146 -0.4
324.1748 -0.4
324.2043 -0.4
324.2376 -0.4
324.2707 -0.4
324.2995 -0.4
324.3292 -0.4
324.358 -0.4
324.3913 -0.4
324.4247 -0.4
324.455 -0.4
324.4864 -0.4
324.5172 -0.4
324.5505 -0.4
324.5796 -0.4
324.6092 -0.4
324.6379 -0.4
324.6677 -0.4
324.701 -0.4
324.7311 -0.4
324.7587 -0.4
324.792 -0.4
324.8222 -0.4
324.8556 -0.4
324.8831 -0.4
324.9113 -0.4
324.9413 -0.4
324.9699 -0.4
325.0032 -0.4
325.0365 -0.4
325.0684 -0.4
325.098 -0.4
325.126 -0.4
325.1593 -0.4
325.1927 -0.4
325.2242 -0.4
325.2514 -0.4
325.2808 -0.4
325.3141 -0.4
325.3435 -0.4
325.3701 -0.4
325.3997 -0.4
325.4331 -0.4
325.4664 -0.4
325.4998 -0.4
325.5292 -0.4
325.5625 -0.4
325.5905 -0.4
325.6238 -0.4
325.6571 -0.4
325.6903 -0.4
325.7179 -0.4
325.7453 -0.4
325.7786 -0.4
325.8076 -0.4
325.8363 -0.4
325.8633 -0.4
325.8932 -0.4
325.9265 -0.4
325.9599 -0.4
325.9884 -0.4
326.0211 -0.4
326.0519 -0.4
326.0818 -0.4
326.1151 -0.4
326.1454 -0.4
326.1746 -0.4
326.2032 -0.4
326.2307 -0.4
326.2641 -0.4
326.2923 -0.4
326.3256 -0.4
326.3571 -0.4
326.3857 -0.4
326.419 -0.4
326.4478 -0.4
326.4801 -0.4
326.509 -0.4
326.5424 -0.4
326.5757 -0.4
326.609 -0.4
326.6385 -0.4
326.6716 -0.4
326.7005 -0.4
326.7339 -0.4
326.7661 -0.4
326.7994 -0.4
326.8327 -0.4
326.8611 -0.4
326.8945 -0.4
326.9278 -0.4
326.9569 -0.4
326.985 -0.4
327.0184 -0.4
327.0517 -0.4
327.0793 -0.4
327.1071 -0.4
327.1358 -0.4
327.1663 -0.4
327.1996 -0.4
327.2318 -0.4
327.2651 -0.4
327.2944 -0.4
327.3263 -0.4
327.359 -0.4
327.3875 -0.4
327.4208 -0.4
327.4542 -0.4
327.4821 -0.4
327.5154 -0.4
327.5487 -0.4
327.5817 -0.4
327.6112 -0.4
327.6446 -0.4
327.6779 -0.4
327.7075 -0.4
327.7349 -0.4
327.7682 -0.4
327.7968 -0.4
327.8301 -0.4
327.8577 -0.4
327.891 -0.4
327.9196 -0.4
327.9529 -0.4
327.9863 -0.4
328.0175 -0.4
328.048 -0.4
328.0756 -0.4
328.1072 -0.4
328.1405 -0.4
328.1718 -0.4
328.2038 -0.4
328.235 -0.4
328.2662 -0.4
328.2996 -0.4
328.3295 -0.4
328.3588 -0.4
328.3906 -0.4
328.4215 -0.4
328.4548 -0.4
328.4813 -0.4
328.5146 -0.4
328.5432 -0.4
328.576 -0.4
328.6093 -0.4
328.6409 -0.4
328.6695 -0.4
328.6994 -0.4
328.7316 -0.4
328.7649 -0.4
328.7961 -0.4
328.8255 -0.4
328.8568 -0.4
328.8901 -0.4
328.9234 -0.4
328.9514 -0.4
328.9784 -0.4
329.0076 -0.4
329.0392 -0.4
329.0725 -0.4
329.1044 -0.4
329.1377 -0.4
329.1709 -0.4
329.2032 -0.4
329.2366 -0.4
329.2699 -0.4
329.3017 -0.4
329.3298 -0.4
329.3587 -0.4
329.392 -0.4
329.4253 -0.4
329.4532 -0.4
329.4804 -0.4
329.5102 -0.4
329.5435 -0.4
329.5749 -0.4
329.6022 -0.4
329.6355 -0.4
329.664 -0.4
329.6973 -0.4
329.7278 -0.4
329.757 -0.4
329.7869 -0.4
329.8179 -0.4
329.8512 -0.4
329.8814 -0.4
329.9105 -0.4
329.9388 -0.4
329.9678 -0.4
330.0012 -0.4
330.0335 -0.4
330.0637 -0.4
330.0918 -0.4
330.1215 -0.4
330.1548 -0.4
330.1839 -0.4
330.2113 -0.4
330.2409 -0.4
330.2708 -0.4
330.3042 -0.4
330.3375 -0.4
330.3706 -0.4
330.4018 -0.4
330.4299 -0.4
330.4632 -0.4
330.4948 -0.4
330.5234 -0.4
330.5527 -0.4
330.5833 -0.4
330.6167 -0.4
330.6497 -0.4
330.6831 -0.4
330.714 -0.4
330.7473 -0.4
330.7806 -0.4
330.8107 -0.4
330.8431 -0.4
330.8742 -0.4
330.9027 -0.4
330.936 -0.4
330.9631 -0.4
330.9929 -0.4
331.022 -0.4
331.0501 -0.4
331.0786 -0.4
331.1119 -0.4
331.1414 -0.4
331.174 -0.4
331.2017 -0.4
331.233 -0.4
331.2663 -0.4
331.2945 -0.4
331.3278 -0.4
331.3594 -0.4
331.3906 -0.4
331.4239 -0.4
331.4537 -0.4
331.4832 -0.4
331.5121 -0.4
331.5415 -0.4
331.5748 -0.4
331.606 -0.4
331.6347 -0.4
331.663 -0.4
331.6895 -0.4
331.7228 -0.4
331.7561 -0.4
331.7844 -0.4
331.8125 -0.4
331.8459 -0.4
331.8792 -0.4
331.9101 -0.4
331.9428 -0.4
331.9762 -0.4
332.0065 -0.4
332.0398 -0.4
332.0681 -0.4
332.0971 -0.4
332.1273 -0.4
332.1562 -0.4
332.1895 -0.4
332.2216 -0.4
332.2509 -0.4
332.2781 -0.4
332.3095 -0.4
332.3428 -0.4
332.3732 -0.4
332.4052 -0.4
332.433 -0.4
332.4663 -0.4
332.4997 -0.4
332.5317 -0.4
332.5591 -0.4
332.5888 -0.4
332.6199 -0.4
332.6533 -0.4
332.686 -0.4
332.7191 -0.4
332.7521 -0.4
332.7821 -0.4
332.8155 -0.4
332.8455 -0.4
332.8761 -0.4
332.9067 -0.4
332.9375 -0.4
332.9709 -0.65
333.0042 -1.05
333.0328 -1.05
333.0609 -1.3
333.0908 -1.7
333.1241 -1.7
333.1533 -1.7
333.1824 -1.7
333.2107 -1.7
333.2422 -1.7
333.2756 -1.7
333.3037 -1.7
333.3343 -1.7
333.3643 -1.7
333.3957 -1.7
333.429 -1.7
333.4623 -1.7
333.4923 -1.7
333.5251 -1.7
333.5549 -1.7
333.5882 -1.5
333.619 -1.5
333.6466 -1.5
333.6776 -1.3
333.7086 -1.3
333.742 -1.05
333.7699 -1.05
333.8023 -1.05
333.8308 -1.05
333.8636 -1.05
333.8969 -1.05
333.9253 -1.05
333.9586 -1.05
333.9888 -1.05
334.0172 -1.05
334.0505 -1.05
334.0826 -1.05
334.1139 -1.05
334.1436 -1.05
334.1748 -1.05
334.2082 -1.05
334.2391 -1.05
334.2665 -1.05
334.2976 -1.05
334.3264 -1.05
334.3598 -1.05
334.3889 -1.05
334.4156 -1.05
334.4444 -1.05
334.4778 -1.05
334.5111 -1.05
334.5413 -1.05
334.5699 -1.05
334.5997 -1.05
334.6291 -1.05
334.6624 -1.05
334.6957 -1.05
334.7256 -1.05
334.7535 -1.05
334.7833 -1.05
334.8167 -1.05
334.8464 -1.05
334.8746 -1.05
334.9045 -1.05
334.9337 -1.05
334.9671 -1.05
334.9961 -1.05
335.028 -1.05
335.0613 -1.05
335.0924 -1.05
335.1258 -1.05
335.1544 -1.05
335.1851 -1.05
335.2169 -1.05
335.2465 -1.05
335.2798 -1.05
335.3131 -1.05
335.3428 -1.05
335.3704 -1.05
335.3989 -1.05
335.4322 -1.05
335.4641 -1.05
335.4958 -1.05
335.5292 -1.05
335.5611 -1.05
335.5945 -1.05
335.6269 -1.05
335.6602 -1.05
335.6883 -1.05
335.7188 -1.05
335.7521 -1.05
335.7797 -1.05
335.8086 -1.05
335.8373 -1.05
335.867 -1.05
335.8984 -1.05
335.9318 -1.05
335.9625 -1.05
335.993 -1.05
336.0264 -1.05
336.0565 -1.05
336.0898 -1.05
336.1189 -1.05
336.1469 -1.05
336.1761 -1.05
336.2076 -1.05
336.2409 -1.05
336.2693 -1.05
336.3001 -1.05
336.3297 -1.05
336.3577 -1.05
336.391 -1.05
336.4204 -1.05
336.4535 -1.05
336.4838 -1.05
336.5155 -1.05
336.5489 -1.05
336.5822 -1.05
336.6155 -1.05
336.6457 -1.05
336.6759 -1.05
336.7092 -1.05
336.7426 -1.05
336.7711 -1.05
336.8038 -1.05
336.8327 -1.05
336.8661 -1.05
336.8954 -1.05
336.9282 -1.05
336.9615 -1.05
336.9935 -1.05
337.0268 -1.05
337.0602 -1.05
337.0935 -1.05
337.1221 -1.05
337.1546 -1.05
337.1879 -1.05
337.2195 -1.05
337.2496 -1.05
337.2801 -1.05
337.3129 -1.05
337.3462 -1.05
337.3738 -1.05
337.403 -1.05
337.4315 -1.05
337.4622 -1.05
337.4955 -1.05
337.5222 -1.05
337.5555 -1.05
337.5867 -1.05
337.62 -1.05
337.6533 -1.05
337.6856 -1.05
337.7159 -1.05
337.7438 -1.05
337.7715 -1.05
337.8049 -1.05
337.836 -1.05
337.8649 -1.05
337.8983 -1.05
337.929 -1.05
337.9623 -1.05
337.9915 -1.05
338.0228 -1.05
338.0524 -1.05
338.0857 -1.05
338.119 -1.05
338.1481 -1.05
338.1814 -1.05
338.2147 -1.05
338.243 -1.05
338.2763 -1.05
338.3097 -1.05
338.339 -1.05
338.3677 -1.05
338.3955 -1.05
338.4288 -1.05
338.4577 -1.05
338.4902 -1.05
338.5178 -1.05
338.5464 -1.05
338.5798 -1.05
338.6131 -1.05
338.6422 -1.05
338.6755 -1.05
338.7056 -1.05
338.739 -1.05
338.7679 -1.05
338.7982 -1.05
338.8316 -1.05
338.8617 -1.05
338.8951 -1.05
338.9284 -1.05
338.9567 -1.05
338.9844 -1.05
339.0118 -1.05
339.0451 -1.05
339.0732 -1.05
339.1045 -1.05
339.133 -1.05
339.1644 -1.05
339.1977 -1.05
339.2262 -1.05
339.2566 -1.05
339.2899 -1.05
339.3208 -1.05
339.3541 -1.05
339.385 -1.05
339.4134 -1.05
339.4414 -1.05
339.469 -1.05
339.5023 -1.05
339.5307 -1.05
339.5598 -1.05
339.5895 -1.05
339.6167 -1.05
339.65 -1.05
339.6833 -1.05
339.7137 -1.05
339.7412 -1.05
339.7746 -1.05
339.8079 -1.05
339.8376 -1.05
339.8683 -1.05
339.8966 -1.05
339.9298 -0.4
339.9631 0.4
339.9926 0.4
340.0259 1.05
340.059 1.3
340.0886 1.3
340.1219 1.5
340.153 1.5
340.1863 1.5
340.2193 1.5
340.2521 1.5
340.2855 1.5
340.3154 1.5
340.3439 1.5
340.3742 1.5
340.4039 1.5
340.4372 1.5
340.4649 1.5
340.4917 1.5
340.5211 1.5
340.5506 1.5
340.584 1.5
340.6152 1.5
340.6472 1.5
340.6761 1.5
340.705 1.5
340.7384 1.5
340.7717 1.5
340.8023 1.5
340.8351 1.5
340.8642 1.5
340.8975 1.5
340.9282 1.5
340.9566 1.5
340.9834 1.5
341.0127 1.5
341.046 1.5
341.0745 1.7
341.1064 1.7
341.1366 2.15
341.1656 2.15
341.1989 2.6
341.2322 3.05
341.2626 3.05
341.296 3.45
341.3293 3.45
341.3626 3.45
341.396 3.45
341.4293 3.45
341.4626 3.45
341.4904 3.45
341.5238 3.45
341.5552 3.45
341.5857 3.45
341.6179 3.45
341.6488 3.45
341.6821 3.45
341.7138 3.25
341.7458 2.8
341.7771 2.8
341.8105 2.6
341.8438 1.95
341.8711 1.95
341.8995 1.95
341.9299 1.95
341.9583 1.95
341.9851 1.95
342.0185 1.95
342.0494 1.95
342.0773 1.95
342.1051 1.95
342.1333 1.95
342.1662 2.15
342.1995 2.4
342.226 2.4
342.259 2.6
342.2881 2.6
342.316 2.8
342.3493 2.8
342.3827 3.05
342.416 3.05
342.445 3.05
342.4716 3.05
342.505 3.05
342.5335 3.05
342.5668 3.05
342.5948 3.05
342.6245 3.05
342.6578 3.05
342.6858 3.05
342.7191 3.05
342.7524 3.05
342.7824 3.05
342.8158 3.05
342.8482 3.05
342.8765 3.05
342.9099 3.05
342.9399 3.05
342.9732 3.05
343.0066 3.05
343.0367 3.05
343.0648 3.05
343.0937 3.05
343.127 3.05
343.1559 3.05
343.1892 3.05
343.2158 3.05
343.2482 3.05
343.2816 3.05
343.3113 3.05
343.3417 3.05
343.3751 3.05
343.4063 3.05
343.4397 3.05
343.4683 3.05
343.5002 3.05
343.5297 3.05
343.5576 3.05
343.5909 3.05
343.6201 3.05
343.6535 3.05
343.6856 3.05
343.7171 3.05
343.7504 3.05
343.7807 3.05
343.8104 3.05
343.8391 3.05
343.8683 3.05
343.9017 3.05
343.9292 3.05
343.9571 3.05
343.9904 3.05
344.0233 3.05
344.0567 3.05
344.0835 3.25
344.1129 3.25
344.1418 3.45
344.1698 3.45
344.1982 3.45
344.2316 3.45
344.2603 3.45
344.292 3.45
344.3253 3.7
344.3586 4.55
344.392 4.55
344.4216 5.65
344.4539 5.65
344.483 6.95
344.5127 8.3
344.5461 8.3
344.5747 8.95
344.6075 9.8
344.6384 9.8
344.6701 10.45
344.7023 10.9
344.7357 10.9
344.7647 11.55
344.7928 11.55
344.8203 12
344.8537 12.45
344.8848 12.45
344.9182 12.85
344.9481 13.75
344.9806 13.75
345.0139 14.85
345.0472 16.15
345.0744 16.15
345.1068 18.1
345.135 19.4
345.1684 19.4
345.1978 21.15
345.2277 22.7
345.261 22.7
345.2943 23.55
345.3277 24.65
345.3606 24.65
345.3901 25.55
345.4221 25.75
345.4494 25.75
345.4827 25.75
345.5111 25.75
345.539 25.75
345.5704 25.95
345.6018 25.95
345.635 25.95
345.6626 25.95
345.6899 25.95
345.7232 25.95
345.7521 25.95
345.7855 25.95
345.8128 25.95
345.8441 25.95
345.8747 25.95
345.9064 25.95
345.9398 25.95
345.9721 25.95
346.003 25.95
346.0316 26.2
346.0596 26.2
346.0929 26.2
346.1209 26.65
346.1526 26.65
346.1841 27.05
346.2135 27.5
346.2469 27.5
346.2779 27.95
346.3071 28.35
346.3375 28.35
346.3684 28.35
346.4014 28.35
346.4279 28.35
346.4598 28.35
346.4932 28.35
346.5216 28.35
346.5543 28.35
346.5876 28.35
346.6198 28.35
346.6498 28.35
346.681 28.8
346.7144 29.05
346.7433 29.45
346.7735 29.45
346.8068 29.9
346.8401 30.1
346.8735 30.1
346.9022 30.35
346.9325 30.35
346.9626 30.35
346.9939 30.35
347.0272 30.55
347.0596 30.55
347.0891 30.55
347.1215 30.55
347.1548 30.8
347.1882 31.2
347.2202 31.2
347.2516 31.45
347.2845 31.45
347.315 31.45
347.3483 31.45
347.3766 31.45
347.4041 31.45
347.4345 31.65
347.4679 32.1
347.5012 32.1
347.5295 32.75
347.5584 32.75
347.5893 33.2
347.6226 33.6
347.6559 33.6
347.6834 34.05
347.712 34.25
347.7453 34.25
347.7773 34.25
347.8102 34.25
347.8407 34.25
347.87 34.25
347.8992 34.25
347.926 34.05
347.9554 34.05
347.9887 33.2
348.0206 31.65
348.0494 31.65
348.0797 30.55
348.1126 30.35
348.1459 30.35
348.1793 30.35
348.2088 30.35
348.2401 30.35
348.27 30.35
348.3033 30.35
348.3314 30.35
348.3611 30.55
348.389 30.55
348.4163 31
348.4482 31
348.4815 31.2
348.5115 31.2
348.5446 31.2
348.5724 31.2
348.6047 31.2
348.638 31.2
348.666 31.2
348.6954 31.2
348.7264 31.2
348.7585 31.2
348.7918 31.2
348.8214 31.2
348.8498 30.55
348.8808 30.55
348.9082 29.9
348.9415 28.6
348.9702 28.6
348.9999 26.65
349.0294 26.65
349.0627 24.45
349.0961 22.25
349.1252 22.25
349.1524 20.05
349.183 18.3
349.2142 18.3
349.2475 16.8
349.2809 14.6
349.3142 14.6
349.3459 13.1
349.3779 11.75
349.4112 11.75
349.4415 10.7
349.4739 9.6
349.5025 9.6
349.5294 8.7
349.5627 8.7
349.5922 7.4
349.6255 6.75
349.6548 6.75
349.6876 3.25
349.721 1.95
349.752 1.95
349.7792 1.7
349.8079 1.7
349.8376 1.7
349.8709 1.7
349.8983 1.7
349.9277 1.7
349.9572 1.7
349.9875 1.7
350.0208 1.5
350.0541 -0.4
350.0854 -0.4
350.1163 -3.7
350.1453 -3.7
350.1786 -10.9
350.2099 -15.05
350.2374 -15.05
350.2654 -19.2
350.2987 -22.05
350.3321 -22.05
350.363 -25.75
350.3963 -28.15
350.4264 -28.15
350.4557 -30.55
350.489 -30.55
350.5196 -32.3
350.5529 -33.85
350.5835 -33.85
350.6139 -36
350.6472 -39.3
350.6797 -39.3
350.7116 -42.55
350.744 -46.5
350.771 -46.5
350.8043 -50.2
350.8331 -50.2
350.8643 -53.05
350.8911 -54.15
350.9196 -54.15
350.953 -54.35
350.9842 -54.35
351.0138 -54.35
351.0471 -54.15
351.08 -54.15
351.1134 -53.95
351.1433 -53.95
351.1754 -53.95
351.2087 -53.95
351.2404 -54.35
351.2737 -54.35
351.3038 -55.7
351.3369 -57.2
351.3683 -57.2
351.4016 -58.95
351.435 -60.5
351.464 -60.5
351.4914 -60.9
351.5247 -60.9
351.5577 -60.9
351.591 -59.6
351.6187 -58.5
351.6469 -58.5
351.6754 -56.75
351.7044 -56.75
351.733 -55.45
351.7664 -52.4
351.7997 -52.4
351.8316 -49.55
351.8592 -45.4
351.8889 -45.4
351.9223 -41.7
351.9549 -36.45
351.9848 -36.45
352.0139 -32.5
352.0444 -32.5
352.0777 -27.3
352.1074 -22.7
352.1357 -22.7
352.1691 -17.9
352.2001 -14.15
352.2334 -14.15
352.2628 -9.35
352.2957 -6.1
352.3269 -6.1
352.3593 -1.5
352.3927 3.45
352.4238 3.45
352.4537 6.75
352.4836 6.75
352.5154 8.7
352.5487 13.95
352.5804 13.95
352.6082 18.55
352.6373 23.15
352.6701 23.15
352.7035 30.35
352.7368 34.7
352.7701 34.7
352.8034 39.95
352.8368 43.45
352.8701 45
352.8986 45
352.9308 45.65
352.9595 45.65
352.9919 45.85
353.025 47.15
353.0544 47.15
353.085 48.9
353.1139 48.9
353.144 51.75
353.1774 54.15
353.2107 54.15
353.2389 57.2
353.268 59.6
353.2977 59.6
353.331 61.6
353.3606 61.6
353.3911 62.45
353.4212 62.45
353.4546 62.45
353.4879 62.25
353.5164 62.25
353.5475 62.25
353.5771 62.25
353.6057 62.25
353.639 62.25
353.6724 61.6
353.7049 58.95
353.7367 58.95
353.77 54.8
353.8033 48.05
353.8339 48.05
353.8633 37.1
353.8928 37.1
353.922 25.3
353.9553 14.6
353.9829 14.6
354.0162 7.6
354.0446 -6.55
354.0749 -6.55
354.1082 -15.9
354.1392 -15.9
354.17 -21.6
354.1992 -26.85
354.2325 -26.85
354.2651 -31.85
354.2984 -37.55
354.3318 -42.8
354.3651 -42.8
354.3961 -47.15
354.4294 -50.2
354.4588 -50.2
354.4922 -54.15
354.5255 -58.75
354.558 -58.75
354.5913 -63.75
354.6247 -67.5
354.6515 -67.5
354.6814 -71.85
354.7147 -75.1
354.748 -75.1
354.7745 -81.25
354.803 -81.25
354.8333 -88.25
354.8639 -94.35
354.8917 -94.35
354.925 -101.35
354.9564 -101.35
354.9898 -106.35
355.0204 -111.6
355.0508 -111.6
355.0841 -115.3
355.1136 -118.6
355.1429 -118.6
355.1741 -124.5
355.2048 -124.5
355.2381 -129.75
355.2651 -134.1
355.295 -134.1
355.3249 -138.25
355.3582 -144.35
355.3915 -144.35
355.4221 -148.3
355.4521 -152
355.4809 -152
355.5104 -154.85
355.5438 -155.75
355.5727 -155.75
355.6013 -156.15
355.6346 -156.15
355.6632 -156.4
355.6965 -156.8
355.7249 -156.8
355.7525 -157.7
355.7814 -158.55
355.8147 -158.55
355.8481 -159.65
355.8748 -159.65
355.9052 -161.65
355.9372 -163.35
355.9706 -163.35
356.0039 -164.45
356.0324 -164.9
356.0646 -164.9
356.0926 -164.9
356.1207 -164.9
356.1541 -164.9
356.183 -164.9
356.2149 -164.9
356.2475 -164.9
356.2805 -163.6
356.3138 -163.6
356.3472 -160.55
356.3768 -154.65
356.41 -154.65
356.4415 -149.85
356.4749 -144.6
356.5041 -144.6
356.5365 -140
356.5698 -137.4
356.6002 -137.4
356.6335 -136.5
356.6637 -136.5
356.6953 -134.75
356.7256 -132.8
356.7554 -132.8
356.7887 -129.75
356.821 -124.7
356.8519 -124.7
356.8801 -118.35
356.9105 -118.35
356.9438 -110.5
356.973 -99.15
357.0034 -86.05
357.0337 -86.05
357.065 -77.5
357.0983 -77.5
357.1264 -71.85
357.1552 -62.45
357.1849 -62.45
357.2151 -55
357.2484 -48.9
357.28 -48.9
357.3095 -42.15
357.3373 -42.15
357.3706 -36.25
357.4039 -29.05
357.4347 -29.05
357.4623 -21.6
357.4922 -12.65
357.5223 -12.65
357.5557 -4.55
357.589 6.1
357.6164 6.1
357.6459 13.5
357.675 13.5
357.7083 17.9
357.7413 22.7
357.7746 22.7
357.805 26.65
357.8344 29.25
357.8677 29.25
357.901 31
357.9336 31.85
357.9669 31.85
357.9947 37.1
358.028 43.65
358.0613 43.65
358.091 52.2
358.1185 52.2
358.149 60.5
358.1824 67.05
358.2098 67.05
358.2383 74.9
358.271 82.35
358.304 82.35
358.3374 87.55
358.3681 93.9
358.3983 93.9
358.4316 98.05
358.4597 98.05
358.4931 101.55
358.5264 102.45
358.5575 102.45
358.5898 102.45
358.6197 101.75
358.653 101.75
358.6864 101.35
358.7141 100.7
358.7418 100.7
358.7712 100.7
358.8045 101.35
358.8337 101.35
358.8629 102.45
358.8955 102.45
358.9249 102.85
358.9583 102.85
358.9869 102.85
359.0157 103.1
359.0451 103.3
359.0728 103.3
359.1061 103.5
359.1382 103.5
359.1716 103.75
359.2049 103.5
359.2328 103.5
359.2661 102.65
359.2994 100.25
359.3279 100.25
359.3552 96.75
359.3862 89.55
359.4195 84.5
359.4502 84.5
359.4822 72.95
359.5155 72.95
359.5462 62.25
359.5796 53.3
359.6075 53.3
359.6372 41.7
359.6693 30.55
359.7 30.55
359.7333 21.4
359.7666 11.1
359.7979 11.1
359.8269 3.7
359.8546 3.7
359.888 -0.65
359.9205 -4.35
359.9477 -4.35
359.9781 -8.5
360.0098 -12.45
360.0431 -12.45
360.0726 -16.15
360.1039 -16.15
360.1357 -20.5
360.1665 -25.75
360.1999 -25.75
360.2332 -30.8
360.2665 -37.75
360.2955 -37.75
360.3273 -43.65
360.3607 -51.1
360.3896 -51.1
360.423 -56.1
360.4563 -60.25
360.4827 -60.25
360.516 -65.95
360.5493 -73.8
360.5815 -73.8
360.6084 -79.7
360.6377 -85.8
360.671 -85.8
360.701 -89.3
360.7343 -92.4
360.7676 -92.4
360.801 -94.55
360.8343 -97.6
360.8676 -101.75
360.9009 -101.75
360.9326 -107.45
360.9659 -112.9
360.9976 -112.9
361.0293 -117.5
361.0627 -122.95
361.0935 -122.95
361.1268 -127.35
361.1602 -131.7
361.1921 -135.65
361.2255 -135.65
361.2569 -138.25
361.2903 -139.8
361.3202 -139.8
361.35 -141.1
361.3793 -141.1
361.4095 -143.3
361.4428 -147.2
361.4738 -147.2
361.5072 -149.4
361.5379 -151.6
361.5712 -151.6
361.6046 -153.1
361.6335 -153.1
361.6652 -154.85
361.6975 -155.95
361.7268 -155.95
361.7601 -157.05
361.7899 -157.25
361.8196 -157.25
361.8486 -157.25
361.8777 -157.25
361.9111 -157.25
361.9444 -157.25
361.9778 -157.25
362.0049 -157.25
362.0359 -157.25
362.0693 -157.25
362.1 -157.25
362.1263 -157.25
362.1579 -157.25
362.1909 -157.25
362.2242 -157.05
362.2562 -157.05
362.2896 -155.5
362.3204 -153.55
362.3537 -153.55
362.3871 -150.7
362.416 -148.5
362.4447 -148.5
362.473 -145.25
362.5002 -145.25
362.5289 -142.85
362.5622 -139.8
362.592 -139.8
362.6233 -138.25
362.656 -134.55
362.6893 -134.55
362.7227 -130.15
362.7494 -125.6
362.779 -125.6
362.8112 -120.8
362.8433 -120.8
362.8766 -114.45
362.909 -108.3
362.9424 -108.3
362.9734 -99.35
363.0009 -89.3
363.0342 -81
363.0675 -81
363.1001 -74.05
363.1276 -74.05
363.1601 -66.8
363.1934 -60.7
363.2241 -60.7
363.2545 -48.25
363.2878 -38.85
363.3192 -38.85
363.3525 -25.75
363.3824 -14.4
363.4139 -14.4
363.4472 0.2
363.4776 12.45
363.5109 12.45
363.543 20.05
363.5764 23.55
363.6088 23.55
363.6402 26.2
363.6736 26.65
363.7024 26.65
363.7313 31
363.7628 38.65
363.7961 38.65
363.8294 45.2
363.8628 52.2
363.8915 52.2
363.9249 59.4
363.9582 65.5
363.9915 65.5
364.0192 72.05
364.05 78.85
364.0806 78.85
364.1139 85.15
364.1472 91.7
364.1758 91.7
364.2069 96.75
364.2345 100.25
364.262 100.25
364.2953 104.4
364.3258 104.4
364.3565 106.8
364.3871 109
364.4192 109
364.4525 109.85
364.4799 109.85
364.5094 109.85
364.5405 109.85
364.5708 109.85
364.6042 110.3
364.6352 111.4
364.6684 111.4
364.7017 112.5
364.7326 112.7
364.766 112.7
364.7965 112.25
364.829 111.6
364.8614 111.6
364.8896 110.95
364.923 110.95
364.9557 110.75
364.9829 110.75
365.0095 110.75
365.0403 110.75
365.0737 110.75
365.1057 110.75
365.1377 110.95
365.1659 110.95
365.1992 112.25
365.2325 114.65
365.2618 114.65
365.2903 117.05
365.3203 119.9
365.3511 119.9
365.3845 122.75
365.4176 126
365.4482 126
365.4753 129.3
365.5052 129.3
365.5385 132.8
365.569 136.95
365.597 136.95
365.6265 139.35
365.6562 141.3
365.6895 141.3
365.719 141.55
365.7491 141.55
365.7825 141.55
365.811 141.3
365.8443 141.3
365.8718 141.3
365.9013 141.3
365.9329 141.3
365.9662 141.1
365.9996 140.65
366.0295 140.65
366.0625 139.55
366.0919 138.05
366.1232 138.05
366.1565 135.4
366.1876 132.55
366.2154 132.55
366.2429 128.85
366.2719 128.85
366.3053 125.35
366.3378 119.9
366.3683 119.9
366.3984 113.35
366.4267 113.35
366.4597 107.65
366.4885 102.65
366.5175 102.65
366.5477 96.55
366.5777 96.55
366.6111 91.05
366.6436 84.1
366.677 76.65
366.7103 76.65
366.7436 69.45
366.777 58.75
366.8076 58.75
366.8394 49.8
366.8709 45.85
366.9003 45.85
366.9336 38.65
366.9655 30.55
366.9927 30.55
367.0216 24.45
367.0512 24.45
367.0846 17
367.1111 9.35
367.1403 9.35
367.1735 1.95
367.2018 -3.25
367.2351 -3.25
367.2656 -5.45
367.2946 -10.45
367.3255 -10.45
367.353 -14.15
367.3864 -14.15
367.4151 -17.9
367.4441 -20.95
367.4718 -20.95
367.5043 -24.9
367.5376 -28.6
367.5689 -28.6
367.5979 -31.2
367.6313 -31.2
367.6611 -34.7
367.6944 -39.95
367.7233 -39.95
367.7541 -45.85
367.7873 -50.45
367.8159 -50.45
367.8487 -55.7
367.8815 -60.9
367.9149 -60.9
367.9482 -64.65
367.9783 -69
368.0117 -69
368.0403 -72.05
368.0732 -73.8
368.1065 -73.8
368.1399 -76
368.1732 -79.7
368.2039 -79.7
368.2347 -83.4
368.2648 -88.65
368.294 -88.65
368.3273 -93.25
368.3579 -93.25
368.3889 -96.95
368.4183 -100.45
368.4465 -100.45
368.4799 -104.85
368.5089 -107.25
368.5391 -107.25
368.5704 -109.4
368.5977 -109.4
368.631 -114.9
368.6624 -119.45
368.6912 -119.45
368.7205 -122.5
368.7511 -126.25
368.7844 -126.25
368.8177 -129.3
368.8457 -129.3
368.8744 -133.25
368.9057 -135.65
368.939 -135.65
368.9724 -137.6
369.0034 -138.45
369.0324 -138.45
369.0612 -138.7
369.0946 -138.45
369.1279 -138.45
369.1613 -138.45
369.1902 -138.45
369.218 -138.45
369.2513 -138.45
369.2847 -138.45
369.3124 -138.45
369.3393 -138.45
369.3681 -138.45
369.4015 -138.45
369.429 -138.45
369.4557 -138.45
369.4872 -138.25
369.5165 -138.25
369.5499 -138.05
369.5783 -137.6
369.608 -137.6
369.6379 -137.15
369.6688 -136.5
369.7021 -136.5
369.7327 -135.85
369.7645 -135.2
369.7962 -135.2
369.8253 -134.55
369.8586 -134.3
369.8913 -134.3
369.9229 -134.1
369.9543 -133.9
369.9877 -133.9
370.021 -133.45
370.0544 -132.35
370.0811 -132.35
370.1132 -130.15
370.146 -125.8
370.1793 -125.8
370.2116 -117.7
370.2431 -109
370.2738 -109
370.3072 -95.45
370.3405 -81.45
370.3738 -81.45
370.4033 -73.15
370.4341 -73.15
370.4665 -61.15
370.4998 -55.7
370.528 -55.7
370.5573 -49.35
370.5859 -38.85
370.6144 -38.85
370.6477 -29.25
370.6811 -14.6
370.7106 -14.6
370.7398 3.25
370.7711 3.25
370.8045 21.6
370.8334 32.5
370.8629 32.5
370.8962 43.45
370.9268 48.7
370.9601 48.7
370.9889 52.85
371.018 52.85
371.0454 63.75
371.073 75.55
371.1026 75.55
371.1359 89.3
371.1674 89.3
371.1992 99.8
371.2296 107
371.2601 107
371.2934 113.15
371.3268 120.35
371.3563 120.35
371.3867 128.2
371.4187 134.75
371.452 134.75
371.4835 139.35
371.5129 145
371.5457 145
371.5734 151.35
371.6068 151.35
371.6395 157.05
371.6677 164.45
371.6949 164.45
371.7272 171
371.7606 178.25
371.7883 178.25
371.8205 185.85
371.8497 185.85
371.881 192.65
371.9144 202.05
371.9457 202.05
371.9757 211.45
372.006 218.2
372.0393 218.2
372.0726 218.4
372.1023 218.4
372.1353 218.4
372.1679 218.4
372.1973 218.4
372.2307 218.4
372.264 218.4
372.2954 218.4
372.3249 218.4
372.3582 218.4
372.3915 218.4
372.4201 218.4
372.4474 218.4
372.4769 218.4
372.5067 218.4
372.5401 218.4
372.573 218.4
372.6032 218.4
372.6341 218.4
372.6674 218.4
372.7008 218.4
372.7309 218.4
372.7642 218.4
372.7931 218.4
372.8205 218.4
372.8538 218.4
372.8872 218.4
372.9167 218.4
372.9441 218.4
372.9742 218.4
373.0076 218.4
373.0409 218.4
373.0714 218.4
373.1032 218.4
373.135 218.4
373.1684 218.4
373.1958 218.4
373.2253 218.4
373.2542 218.4
373.2828 218.4
373.3161 218.4
373.349 218.4
373.3787 218.4
373.412 218.4
373.4453 218.4
373.4787 218.4
373.5086 218.4
373.542 218.4
373.5717 218.4
373.6037 218.4
373.637 218.4
373.6674 218.4
373.699 218.4
373.7324 218.4
373.7629 218.4
373.7962 218.4
373.8242 218.4
373.8548 218.4
373.884 218.4
373.9156 218.4
373.9489 218.4
373.9781 218.4
374.0114 218.4
374.0447 218.4
374.0781 218.4
374.1114 218.4
374.1447 218.4
374.174 218.4
374.2016 218.4
374.2324 218.4
374.2657 218.4
374.2961 218.4
374.3295 218.4
374.3601 218.4
374.3898 218.4
374.4231 218.4
374.4565 218.4
374.4898 218.4
374.5201 218.4
374.5487 218.4
374.582 217.55
374.613 217.55
374.6464 216.45
374.6771 213.85
374.7065 213.85
374.7399 208.35
374.7698 201.6
374.7999 201.6
374.8298 192.2
374.8592 192.2
374.8925 174.75
374.9232 155.3
374.9521 140
374.9822 140
375.0149 126.25
375.0482 116.2
375.0784 116.2
375.1118 107.65
375.1406 107.65
375.1694 98.7
375.2028 84.95
375.2326 84.95
375.2627 74.05
375.2914 74.05
375.3191 57
375.3524 41.25
375.3843 41.25
375.4138 21.8
375.4471 6.55
375.4805 6.55
375.5138 -3.05
375.5456 -6.75
375.5743 -6.75
375.6076 -13.5
375.6409 -17
375.6743 -18.75
375.702 -18.75
375.7354 -19.65
375.7658 -19.65
375.7953 -20.3
375.8287 -21.15
375.8582 -21.15
375.8881 -21.15
375.9214 -21.15
375.9495 -21.15
375.9828 -20.5
376.0161 -18.55
376.0448 -18.55
376.0781 -15.05
376.1071 -9.35
376.1405 -9.35
376.1717 -3.7
376.205 -0.85
376.2359 -0.85
376.2693 0.65
376.3026 0.65
376.3344 0.65
376.365 0.65
376.3933 0.65
376.4234 0.65
376.4567 0.65
376.4853 1.3
376.5152 1.3
376.5457 2.15
376.5774 2.15
376.6107 3.05
376.6424 4.8
376.6739 7.85
376.7061 7.85
376.7394 10.7
376.7728 12.65
376.8041 12.65
376.8368 13.5
376.8701 13.3
376.902 13.3
376.9353 13.3
376.9631 13.5
376.992 13.5
377.0222 13.75
377.05 13.75
377.0834 13.75
377.1167 13.75
377.1501 13.75
377.1834 13.75
377.2118 13.75
377.2451 13.75
377.2784 13.75
377.3073 13.75
377.3407 13.75
377.374 13.75
377.4073 13.75
377.4357 13.75
377.469 13.75
377.5023 13.75
377.5333 13.75
377.5667 13.75
377.5953 13.75
377.6254 13.75
377.6585 13.75
377.6875 13.75
377.7209 13.75
377.7542 13.75
377.7875 13.75
377.8182 13.75
377.8482 13.75
377.8816 13.75
377.9149 13.75
377.944 13.75
377.9753 13.75
378.0086 13.75
378.042 13.75
378.0696 13.75
378.1002 13.75
378.1335 13.75
378.1669 13.75
378.2002 13.75
378.228 13.75
378.2614 13.75
378.2947 13.75
378.328 13.75
378.3614 13.75
378.3942 13.75
378.4276 13.75
378.4561 13.75
378.4844 13.75
378.5178 13.75
378.5511 13.75
378.5824 13.75
378.6105 13.75
378.6438 13.75
378.6771 13.75
378.709 13.95
378.741 13.95
378.7708 13.95
378.8042 14.15
378.8375 14.4
378.8671 14.4
378.9005 14.6
378.9301 14.85
378.9583 14.85
378.9917 15.05
379.025 15.5
379.0583 15.7
379.0881 15.7
379.1205 15.7
379.1538 15.7
379.1826 15.7
379.214 15.9
379.241 15.9
379.274 16.35
379.3073 17.25
379.3406 18.55
379.3705 18.55
379.3997 20.05
379.433 20.05
379.4663 22.25
379.4986 24.65
379.5319 24.65
379.5652 27.7
379.5953 32.5
379.6286 32.5
379.662 36.25
379.6953 41.25
379.7286 46.3
379.762 46.3
379.7953 51.1
379.8253 55
379.8574 55
379.888 58.75
379.9178 58.75
379.9511 62.45
379.9843 65.95
380.0156 65.95
380.0465 69.65
380.0778 72.95
380.1111 72.95
380.1398 76.65
380.1685 80.35
380.1978 80.35
380.2291 84.5
380.2624 90.65
380.2937 90.65
380.3245 96.1
380.3569 103.5
380.3874 103.5
380.4207 112.5
380.4521 122.75
380.4822 122.75
380.5089 131.5
380.5391 131.5
380.5724 141.1
380.6057 147.85
380.6341 147.85
380.6636 150.9
380.6931 154.85
380.7264 154.85
380.7598 163.15
380.7881 163.15
380.8203 174.75
380.8528 184.15
380.8861 195.25
380.9161 195.25
380.9474 203.8
380.9764 203.8
381.0097 214.05
381.043 218.4
381.0764 218.4
381.1061 218.4
381.1341 218.4
381.1639 218.4
381.1972 218.4
381.2301 218.4
381.2634 218.4
381.2951 218.2
381.3285 217.1
381.3618 217.1
381.393 213.2
381.4264 207.05
381.4554 207.05
381.4857 201.15
381.519 197.65
381.5495 197.65
381.5828 194.4
381.6116 194.4
381.6405 192.2
381.6738 187.85
381.7032 187.85
381.7319 181.95
381.761 171.45
381.794 171.45
381.8273 158.35
381.8607 149.85
381.8911 149.85
381.9227 132.15
381.9527 132.15
381.9861 123.85
382.0144 115.3
382.0474 115.3
382.076 98.7
382.1093 86.25
382.1427 86.25
382.1712 68.15
382.2024 45.2
382.2357 45.2
382.269 22.25
382.3024 5.85
382.3357 -6.55
382.3651 -6.55
382.392 -10.9
382.4253 -10.9
382.4586 -15.25
382.4919 -24.65
382.5236 -24.65
382.5532 -33.4
382.5865 -44.3
382.6199 -44.3
382.6474 -52.6
382.6807 -64.4
382.7103 -64.4
382.7415 -76.45
382.7748 -87.55
382.8081 -87.55
382.8415 -97.2
382.8704 -108.1
382.9002 -108.1
382.9336 -117.3
382.9635 -129.1
382.9943 -129.1
383.0225 -138.7
383.0522 -138.7
383.0856 -151.35
383.1137 -162.95
383.1412 -162.95
383.1704 -171.45
383.2035 -181.5
383.2368 -181.5
383.2696 -189.6
383.2995 -189.6
383.3322 -192.85
383.3622 -196.6
383.3956 -203.35
383.4288 -203.35
383.4604 -213.6
383.49 -213.6
383.5233 -218.4
383.5567 -218.4
383.59 -218.4
383.6204 -218.4
383.6513 -218.4
383.6806 -218.4
383.714 -218.4
383.7454 -218.4
383.7732 -218.4
383.8034 -218.4
383.8322 -218.4
383.8655 -218.4
383.8973 -218.4
383.9307 -218.4
383.96 -218.4
383.9886 -218.4
384.0219 -218.4
384.0526 -218.4
384.082 -218.4
384.1153 -218.4
384.144 -218.4
384.1773 -218.4
384.2062 -218.4
384.2365 -218.4
384.2696 -218.4
384.3013 -218.4
384.3346 -218.4
384.3667 -218.4
384.3958 -218.4
384.4281 -218.4
384.4615 -218.4
384.4948 -218.4
384.5274 -218.4
384.5608 -218.4
384.5892 -218.4
384.6195 -218.4
384.6527 -218.4
384.6843 -218.4
384.7166 -218.4
384.7452 -218.4
384.7776 -218.4
384.8109 -218.4
384.841 -218.4
384.872 -218.4
384.9031 -218.4
384.9334 -218.4
384.9668 -218.4
384.997 -218.4
385.0269 -218.4
385.0559 -218.4
385.0888 -218.4
385.1222 -218.4
385.1503 -218.4
385.1803 -218.4
385.2109 -218.4
385.2393 -218.4
385.2726 -218.4
385.303 -218.4
385.3322 -218.4
385.3612 -218.4
385.3929 -218.4
385.4263 -218.4
385.4557 -218.4
385.489 -218.4
385.517 -218.4
385.5468 -218.4
385.5801 -218.4
385.6135 -218.4
385.6427 -218.4
385.6724 -218.4
385.7015 -218.4
385.7348 -218.4
385.7614 -218.4
385.7948 -218.4
385.8228 -218.4
385.851 -218.4
385.8841 -218.4
385.914 -218.4
385.9472 -218.4
385.9791 -218.4
386.0066 -218.4
386.0399 -218.4
386.0699 -218.4
386.1003 -218.4
386.1299 -218.4
386.1633 -218.4
386.1966 -218.4
386.2273 -218.4
386.2558 -218.4
386.288 -218.4
386.3167 -218.4
386.35 -218.4
386.3774 -218.4
386.4067 -218.4
386.4382 -218.4
386.4684 -218.4
386.5017 -218.4
386.5323 -218.4
386.5646 -218.4
386.595 -218.4
386.6232 -218
386.6566 -213.85
386.686 -213.85
386.7142 -209.45
386.7413 -209.45
386.7706 -202.7
386.8003 -193.75
386.8336 -193.75
386.8669 -187.2
386.8987 -183.05
386.9275 -183.05
386.9576 -182.8
386.991 -182.8
387.0229 -183.7
387.0522 -186.1
387.0844 -186.1
387.1154 -190.9
387.1487 -196.15
387.182 -196.15
387.2123 -200.75
387.2411 -200.75
387.2736 -203.15
387.3069 -203.15
387.3362 -203.15
387.3696 -201.6
387.3989 -198.75
387.4291 -198.75
387.4625 -192.85
387.4891 -189.8
387.5224 -189.8
387.5549 -185.85
387.5836 -180.65
387.6169 -180.65
387.6461 -175.4
387.6769 -175.4
387.7057 -170.8
387.7357 -163.35
387.769 -163.35
387.8017 -153.75
387.8351 -141.95
387.8623 -141.95
387.8956 -129.95
387.929 -114.9
387.9589 -114.9
387.987 -96.3
388.0168 -96.3
388.0468 -80.8
388.0801 -61.35
388.1088 -61.35
388.1394 -44.55
388.1706 -33.4
388.2014 -33.4
388.2348 -26.85
388.2681 -23.15
388.2994 -23.15
388.3283 -21.6
388.3582 -21.6
388.3915 -21.8
388.4217 -22.7
388.4503 -22.7
388.478 -22.7
388.5111 -20.75
388.5445 -20.75
388.573 -17
388.6006 -17
388.6308 -6.3
388.6631 5.45
388.696 5.45
388.7251 17
388.7562 17
388.7867 25.1
388.8158 33.6
388.8491 33.6
388.8809 42.15
388.9142 50.45
388.9452 50.45
388.9745 58.1
389.0078 65.95
389.0361 65.95
389.0692 72.05
389.0965 72.05
389.1268 76.85
389.1602 81.65
389.1935 85.15
389.2245 85.15
389.2552 86.5
389.2885 86.5
389.3219 90
389.3488 95.45
389.3816 95.45
389.4149 99.6
389.4462 103.5
389.4795 103.5
389.5088 106.8
389.5421 109
389.5747 109
389.6044 110.95
389.6377 111.6
389.6669 111.6
389.7002 113.15
389.7288 113.15
389.7614 115.95
389.7947 120.8
389.8277 120.8
389.8597 126
389.8931 130.6
389.9232 130.6
389.9565 135.65
389.9835 140
390.0142 140
390.0467 143.3
390.0801 145.7
390.1134 145.7
390.1467 147.85
390.1794 149.4
390.2092 149.4
390.2426 150.9
390.2759 152.45
390.3048 152.45
390.3345 154.85
390.3678 157.7
390.397 157.7
390.4304 160.3
390.4606 160.3
390.4939 162.5
390.5244 165.8
390.5536 165.8
390.5869 170.35
390.6137 170.35
390.6436 174.95
390.6735 180.4
390.7038 180.4
390.7372 183.7
390.7698 185.85
390.8012 185.85
390.8346 186.55
390.864 186.75
390.8974 186.75
390.9267 187.2
390.9548 187.2
390.9822 188.95
391.0137 190.9
391.0471 190.9
391.0771 193.5
391.1034 195.25
391.1336 195.25
391.166 195.5
391.1993 195.5
391.2326 195.7
391.2615 195.9
391.2924 195.9
391.3258 195.9
391.3591 195.9
391.3924 195.9
391.4234 195.9
391.4526 195.9
391.4813 195.9
391.5146 194.4
391.5476 190.7
391.5809 190.7
391.6138 184.35
391.6438 174.1
391.6772 174.1
391.7075 160.1
391.7381 147.2
391.7681 147.2
391.8006 131.7
391.8339 116.2
391.8639 116.2
391.894 107
391.9248 107
391.9582 98.3
391.9915 89.1
392.0214 76.65
392.0501 76.65
392.0806 65.5
392.109 65.5
392.1424 50
392.1724 35.35
392.2057 35.35
392.2346 18.55
392.268 6.75
392.3013 6.75
392.3329 -3.9
392.362 -11.1
392.3932 -11.1
392.4265 -12.2
392.4598 -17.65
392.4925 -17.65
392.5228 -24.9
392.5552 -35.15
392.5836 -35.15
392.617 -44.75
392.6459 -57.45
392.6759 -57.45
392.7035 -69.45
392.7305 -69.45
392.7638 -78.6
392.7972 -86.5
392.8305 -86.5
392.8597 -98.7
392.893 -111.8
392.9264 -111.8
392.9597 -124.25
392.9887 -134.75
393.018 -134.75
393.0467 -147
393.0743 -147
393.1076 -157.25
393.1378 -169.95
393.1712 -169.95
393.199 -176.5
393.2305 -180.85
393.2639 -180.85
393.2949 -182.6
393.3242 -190.25
393.3529 -190.25
393.3862 -198.1
393.4196 -208.35
393.4474 -208.35
393.4767 -218.4
393.5094 -218.4
393.5427 -218.4
393.576 -218.4
393.6045 -218.4
393.6336 -218.4
393.6626 -218.4
393.6959 -218.4
393.7292 -218.4
393.7621 -218.4
393.791 -218.4
393.8195 -218.4
393.8528 -218.4
393.8862 -218.4
393.9195 -218.4
393.9499 -218.4
393.9791 -218.4
394.0124 -218.4
394.0457 -218.4
394.0732 -218.4
394.1006 -218.4
394.1324 -218.4
394.1657 -218.4
394.199 -218.4
394.2323 -218.4
394.2622 -218.4
394.292 -218.4
394.3223 -218.4
394.3557 -218.4
394.3837 -218.4
394.412 -218.4
394.443 -218.4
394.4764 -218.4
394.5097 -218.4
394.54 -218.4
394.5689 -218.4
394.5966 -218.4
394.6264 -218.4
394.6597 -218.4
394.6877 -218.4
394.7162 -218.4
394.7478 -218.4
394.7797 -218.4
394.813 -218.4
394.8456 -218.4
394.8789 -218.4
394.9116 -218.4
394.9447 -218.4
394.978 -218.4
395.0065 -218.4
395.0348 -218.4
395.0655 -218.4
395.0945 -218.4
395.1278 -218.4
395.1573 -218.4
395.1885 -218.4
395.219 -218.4
395.2522 -218.4
395.2855 -218.4
395.3163 -218.4
395.3433 -218.4
395.3723 -218.4
395.4034 -218.4
395.4367 -218.4
395.47 -218.4
395.5033 -218.4
395.5367 -218.4
395.5673 -218.4
395.6006 -218.4
395.6339 -218.4
395.6673 -218.4
395.6965 -218.4
395.723 -218.4
395.7563 -217.75
395.7881 -217.1
395.8177 -217.1
395.8492 -216.45
395.8783 -216.45
395.9116 -215.8
395.9449 -213.85
395.9716 -213.85
396.0032 -211.45
396.0365 -207.7
396.0698 -207.7
396.0974 -201.4
396.1274 -195.7
396.1608 -195.7
396.1889 -187.6
396.2222 -180.85
396.2506 -180.85
396.284 -177.35
396.3163 -176.05
396.3425 -176.05
396.3758 -174.75
396.4071 -174.75
396.4362 -172.1
396.4696 -167.1
396.5025 -167.1
396.5358 -161.85
396.5641 -156.15
396.592 -156.15
396.6226 -146.35
396.6559 -136.95
396.6893 -136.95
396.7188 -128.4
396.7516 -115.75
396.7841 -115.75
396.8135 -100.9
396.8469 -87.8
396.8799 -87.8
396.9132 -71.2
396.9412 -56.55
396.9689 -56.55
397.0023 -46.05
397.0356 -40.15
397.0689 -40.15
397.0973 -33.6
397.1306 -26.4
397.1639 -16.35
397.1933 -16.35
397.2234 -4.35
397.2517 -4.35
397.2832 6.55
397.3166 16.8
397.3471 16.8
397.3772 24
397.4089 24
397.4374 28.8
397.4707 34.95
397.5028 34.95
397.5315 41.25
397.5621 46.3
397.5912 46.3
397.6246 52.6
397.6538 58.3
397.6865 58.3
397.7184 63.1
397.7502 66.15
397.7835 66.15
397.8168 69.9
397.844 69.9
397.8727 73.35
397.906 77.75
397.9394 77.75
397.967 81.65
397.996 86.05
398.0256 86.05
398.053 92.6
398.0827 92.6
398.1161 101.55
398.1489 110.95
398.1823 110.95
398.2111 120.55
398.2444 128.85
398.2778 128.85
398.3073 137.8
398.335 147
398.3664 147
398.3972 158.35
398.4306 158.35
398.4637 170.35
398.497 182.4
398.5283 182.4
398.5598 191.55
398.5932 202.5
398.6265 211.65
398.6572 211.65
398.6885 218.4
398.7219 218.4
398.7552 218.4
398.7853 218.4
398.8134 218.4
398.8412 218.4
398.8703 218.4
398.9028 218.4
398.9361 218.4
398.9633 218.4
398.995 218.4
399.0269 218.4
399.0561 218.4
399.0894 218.4
399.1183 218.4
399.149 218.4
399.1797 218.4
399.2123 218.4
399.2456 218.4
399.2775 218.4
399.3062 218.4
399.3344 218.4
399.3636 218.4
399.397 218.4
399.4293 218.4
399.4566 218.4
399.4899 218.4
399.5197 218.4
399.5531 218.4
399.5826 218.4
399.6128 218.4
399.6439 218.4
399.6747 218.4
399.708 218.4
399.7373 218.4
399.7671 218.4
399.7967 218.4
399.8274 218.4
399.8607 218.4
399.8941 218.4
399.9274 218.4
399.9562 218.4
399.989 218.4
400.0223 218.4
400.0518 218.4
400.0816 218.4
400.1129 218.4
400.1446 218.4
400.1779 218.4
400.2102 218.4
400.2419 218.4
400.2741 218.4
400.3028 218.4
400.3361 218.4
400.3682 218.4
400.3979 218.4
400.4261 218.4
400.4549 218.4
400.4882 218.4
400.5191 218.4
400.5466 218.4
400.5781 218.4
400.6073 218.4
400.6407 218.4
400.6693 218.4
400.7023 218.4
400.7344 218.4
400.7678 218.4
400.8011 218.4
400.8325 218.4
400.8659 218.4
400.8964 218.4
400.9243 218.4
400.9577 218.4
400.9873 218
401.0191 214.5
401.0502 214.5
401.0787 214.7
401.112 214.95
401.1454 214.95
401.1769 212.3
401.2096 203.55
401.2416 203.55
401.275 193.3
401.3029 178.9
401.3299 178.9
401.361 164.05
401.3943 164.05
401.4276 153.55
401.4567 147.45
401.486 147.45
401.516 143.7
401.5478 143.7
401.5812 139.8
401.6111 134.75
401.6398 134.75
401.6732 131.9
401.7025 128.85
401.7358 125.8
401.7666 125.8
401.7986 123.6
401.8274 123.6
401.8581 120.55
401.8914 118.15
401.9247 118.15
401.9522 117.3
401.9835 117.3
402.0149 117.3
402.0482 117.05
402.081 115.95
402.1143 115.95
402.1462 115.55
402.1756 115.55
402.209 115.55
402.2423 115.55
402.2716 115.55
402.3016 115.55
402.3298 115.1
402.3632 113.15
402.3925 113.15
402.4258 109.2
402.4566 109.2
402.4894 101.75
402.5227 93.45
402.556 79.95
402.5839 79.95
402.616 67.5
402.6491 67.5
402.6824 50.45
402.7153 34.25
402.7487 21.8
402.782 21.8
402.8148 15.9
402.8482 8.95
402.8779 8.95
402.9112 0.65
402.9416 -8.3
402.9701 -8.3
403.0034 -14.85
403.0368 -20.05
403.0659 -20.05
403.096 -26.65
403.1294 -26.65
403.1627 -34.05
403.1922 -41.05
403.2218 -50.65
403.2551 -50.65
403.2852 -61.6
403.3185 -61.6
403.3462 -71.4
403.377 -78.4
403.4097 -78.4
403.4406 -85.8
403.4739 -90
403.5065 -90
403.5398 -92.8
403.5714 -100.7
403.6015 -100.7
403.6348 -109.2
403.6682 -120.35
403.7015 -120.35
403.7348 -130.6
403.7682 -137.6
403.8015 -145
403.831 -145
403.8633 -150.5
403.8949 -153.75
403.9282 -153.75
403.9615 -155.5
403.9949 -156.8
404.0258 -156.8
404.0587 -158.15
404.0892 -159.2
404.1225 -159.2
404.1559 -160.55
404.1863 -161.85
404.2195 -161.85
404.2528 -162.7
404.2861 -163.15
404.3178 -163.35
404.3469 -163.35
404.3778 -163.35
404.4102 -163.35
404.4436 -163.35
404.4737 -163.35
404.507 -163.35
404.5372 -163.15
404.5686 -163.15
404.602 -163.15
404.6307 -163.15
404.6617 -163.15
404.6939 -163.15
404.7243 -163.15
404.7577 -163.35
404.7909 -163.35
404.8242 -164.45
404.8573 -166.45
404.8906 -166.45
404.924 -168.4
404.9547 -170.6
404.9835 -170.6
405.0154 -172.35
405.0453 -172.35
405.0786 -173.85
405.1087 -175.4
405.1406 -175.4
405.1698 -176.05
405.2013 -176.05
405.2346 -176.05
405.2676 -176.05
405.299 -176.05
405.3286 -176.05
405.3573 -176.25
405.3907 -176.25
405.424 -176.25
405.4565 -176.5
405.485 -176.5
405.5143 -177.35
405.5476 -178.25
405.5779 -178.25
405.6078 -180.2
405.6412 -181.95
405.6717 -181.95
405.705 -182.8
405.7334 -185.65
405.7614 -185.65
405.7943 -186.95
405.8267 -186.95
405.86 -186.95
405.8899 -185
405.9232 -182.15
405.9526 -182.15
405.9815 -172.35
406.0149 -172.35
406.0438 -163.6
406.0728 -149.85
406.1061 -149.85
406.1375 -134.3
406.1709 -119.9
406.2015 -119.9
406.2296 -111.4
406.2608 -102.85
406.2909 -102.85
406.3242 -93.7
406.3526 -86.9
406.3812 -86.9
406.4145 -80.35
406.446 -80.35
406.4793 -72.3
406.5126 -67.7
406.5432 -67.7
406.5719 -62.65
406.6052 -57.85
406.6383 -57.85
406.6717 -53.7
406.7009 -49.55
406.734 -49.55
406.7654 -46.05
406.7987 -38
406.8312 -28.35
406.8642 -28.35
406.8976 -19.65
406.9305 -9.35
406.9638 -9.35
406.9949 -2.4
407.0269 1.05
407.0573 1.05
407.0858 1.05
407.1191 1.05
407.1508 0.85
407.1806 0.85
407.2133 0.85
407.2467 0.85
407.2798 0.85
407.3091 0.85
407.338 0.85
407.3693 0.85
407.3976 0.85
407.4309 0.85
407.4616 0.85
407.495 0.85
407.5283 0.85
407.5611 0.4
407.5944 0.4
407.6277 -0.2
407.6567 -0.2
407.69 -0.2
407.721 -0.2
407.7544 -0.2
407.7841 -0.2
407.8174 -0.2
407.8508 -0.2
407.879 -0.2
407.9123 -0.2
407.9456 -0.2
407.9745 -0.2
408.003 -0.2
408.0339 -0.2
408.0673 -0.2
408.1006 -0.2
408.1287 -0.2
408.1602 -0.2
408.19 -0.2
408.2234 -0.2
408.2539 -0.2
408.2873 -0.2
408.3159 -0.2
408.3466 -0.2
408.3799 -0.2
408.4078 -0.2
408.4384 -0.2
408.4686 -0.2
408.4968 -0.2
408.5298 -0.2
408.5631 -0.2
