時間[s] タイヤの舵角[deg]
0 0
0.02 3.25
0.05333333 3.25
0.08666666 3.25
0.12 3.25
0.15051 3.25
0.1838433 3.25
0.2158138 3.25
0.2478088 3.25
0.2811421 3.25
0.3144755 3.25
0.3464326 3.25
0.3797659 3.25
0.4081298 3.25
0.4414631 3.25
0.4747965 3.25
0.5081298 3.25
0.5414631 3.25
0.5747965 3.25
0.6043122 3.25
0.6357782 3.25
0.6687389 3.25
0.6981199 3.25
0.7266931 3.25
0.7559936 3.25
0.7860779 3.25
0.8194112 3.25
0.8476305 3.25
0.8776135 3.25
0.9109468 3.25
0.9442638 3.25
0.974503 3.25
1.007836 3.25
1.038711 3.25
1.069831 3.25
1.098669 3.25
1.128474 3.25
1.157557 3.25
1.189572 3.25
1.218347 3.25
1.25168 3.25
1.284341 3.25
1.314372 3.25
1.347705 2.8
1.381038 2.6
1.414372 2.4
1.447705 2.4
1.478396 1.95
1.51173 1.7
1.543772 1.7
1.577106 1.7
1.60652 1.7
1.635665 1.7
1.668998 1.7
1.702332 1.7
1.730499 1.7
1.762076 1.7
1.793015 1.7
1.826348 1.7
1.859385 1.7
1.892111 1.7
1.925077 1.7
1.95841 1.7
1.991744 1.7
2.020413 1.7
2.05032 1.7
2.082296 1.7
2.112242 1.7
2.145576 1.7
2.175486 1.7
2.207616 1.7
2.238476 1.7
2.27181 1.7
2.305143 1.7
2.338476 1.7
2.371033 1.7
2.404366 1.7
2.437699 1.7
2.471033 1.7
2.504366 1.7
2.535088 1.7
2.566205 1.7
2.599538 1.7
2.632871 1.7
2.666205 1.7
2.698056 1.7
2.728325 1.7
2.761255 1.7
2.794588 1.7
2.82286 1.7
2.855819 1.7
2.889153 1.7
2.922486 1.7
2.955819 1.7
2.989153 1.7
3.01843 1.7
3.05081 1.7
3.082146 1.7
3.11548 1.7
3.145104 1.7
3.175804 1.7
3.207586 1.7
3.23954 1.7
3.272873 1.7
3.302037 1.7
3.33438 1.7
3.36766 1.7
3.397184 1.7
3.430517 1.7
3.460935 1.7
3.494022 1.7
3.525481 1.7
3.556017 1.7
3.58935 1.7
3.621129 1.7
3.651399 1.7
3.682006 1.7
3.712085 1.7
3.745418 1.7
3.776317 1.7
3.808403 1.7
3.83983 1.7
3.873164 1.7
3.906497 1.7
3.938628 1.7
3.969592 1.7
4.002925 1.7
4.036259 1.7
4.069592 1.7
4.102925 1.7
4.136259 1.7
4.165339 1.7
4.196229 1.7
4.229562 1.7
4.262896 1.7
4.293809 1.7
4.326158 1.7
4.356313 1.7
4.389646 1.7
4.419524 1.7
4.452858 1.7
4.484001 1.7
4.515546 1.7
4.548879 1.7
4.582213 1.7
4.612904 1.7
4.646237 1.7
4.675637 1.7
4.708971 1.7
4.736977 1.7
4.767458 1.7
4.797514 1.7
4.829293 1.7
4.862627 1.7
4.893906 1.7
4.924161 1.7
4.95712 1.7
4.988036 1.7
5.021369 1.7
5.048941 1.7
5.077884 1.7
5.107159 1.7
5.137722 1.7
5.171055 1.7
5.20386 1.7
5.232869 1.7
5.266202 1.7
5.296279 1.7
5.329612 1.7
5.362936 1.7
5.396269 1.7
5.429052 1.7
5.460433 1.7
5.493767 1.7
5.524068 1.7
5.553605 1.7
5.586938 1.7
5.617798 1.7
5.651132 1.7
5.680227 1.7
5.711473 1.7
5.744807 1.7
5.77814 1.7
5.811473 1.7
5.843095 1.7
5.876137 1.7
5.909363 1.7
5.942447 1.7
5.97578 1.7
6.004723 1.7
6.038056 1.7
6.06644 1.7
6.099773 1.7
6.133106 1.7
6.162835 1.7
6.191225 1.7
6.224558 1.7
6.25359 1.7
6.286923 1.7
6.317108 1.7
6.347515 1.7
6.380848 1.7
6.411309 1.7
6.444643 1.7
6.477815 1.7
6.511148 1.7
6.544481 1.7
6.57391 1.7
6.607243 1.7
6.637589 1.7
6.670922 1.7
6.701357 1.7
6.734296 1.7
6.767629 1.7
6.800033 1.7
6.829198 1.7
6.862532 1.7
6.895656 1.7
6.928989 1.7
6.96204 1.7
6.993112 1.7
7.024622 1.7
7.055234 1.7
7.088568 1.7
7.118507 1.7
7.151841 1.7
7.185174 1.7
7.21503 1.7
7.248363 1.7
7.277659 1.7
7.310992 1.7
7.339828 1.7
7.370412 1.7
7.403745 1.7
7.435143 1.7
7.465891 1.7
7.499194 1.7
7.532527 1.7
7.56586 1.7
7.595871 1.7
7.627 1.7
7.659717 1.7
7.69305 1.7
7.726384 1.7
7.759717 1.7
7.79305 1.7
7.824088 1.7
7.855943 1.7
7.889276 1.7
7.917831 1.7
7.947662 1.7
7.977975 1.7
8.011308 1.7
8.044641 1.7
8.077975 1.7
8.107158 1.7
8.138979 1.7
8.168108 1.7
8.201442 1.7
8.233547 1.7
8.263681 1.7
8.297014 1.7
8.328321 1.7
8.361653 1.7
8.394987 1.7
8.427123 1.7
8.460456 1.7
8.49379 1.7
8.527122 1.7
8.556112 1.7
8.587719 1.7
8.621052 1.7
8.651528 1.7
8.684861 1.7
8.715385 1.7
8.744129 1.7
8.777463 1.7
8.808149 1.7
8.841482 1.7
8.870361 1.7
8.903695 1.7
8.936577 1.7
8.966906 1.7
9.000239 1.7
9.033572 1.7
9.063861 1.7
9.096741 1.7
9.130074 1.7
9.163407 1.7
9.196561 1.7
9.227069 1.7
9.260403 1.7
9.290672 1.7
9.324006 1.7
9.35734 1.7
9.387961 1.7
9.417788 1.7
9.451121 1.7
9.484454 1.7
9.513045 1.7
9.543257 1.7
9.57659 1.7
9.609693 1.7
9.643026 1.7
9.67381 1.7
9.707144 1.7
9.738059 1.7
9.767584 1.7
9.800917 1.7
9.830961 1.7
9.864295 1.7
9.895443 1.7
9.928776 1.7
9.96211 1.7
9.994761 1.7
10.02768 1.7
10.05921 1.7
10.09255 1.7
10.12588 1.7
10.15477 1.7
10.1881 1.7
10.21902 1.7
10.25235 1.7
10.28569 1.7
10.31902 1.7
10.34774 1.7
10.38107 1.7
10.40999 1.7
10.44332 1.7
10.47604 1.7
10.50569 1.7
10.53769 1.7
10.56953 1.7
10.60286 1.7
10.63444 1.7
10.66348 1.7
10.69397 1.7
10.72298 1.7
10.75631 1.7
10.78673 1.7
10.81758 1.7
10.84716 1.7
10.88049 1.7
10.91382 1.7
10.94715 1.7
10.9763 1.7
11.00701 1.7
11.03994 1.7
11.07327 1.7
11.10416 1.7
11.13575 1.7
11.16722 1.7
11.19859 1.7
11.23193 1.7
11.265 1.7
11.29834 1.7
11.33145 1.7
11.36034 1.7
11.39368 1.7
11.42583 1.7
11.45521 1.7
11.48528 1.7
11.51861 1.7
11.55194 1.7
11.58356 1.7
11.61471 1.7
11.64805 1.7
11.68138 1.7
11.71471 1.7
11.74415 1.7
11.77474 1.7
11.80807 1.7
11.8398 1.7
11.87314 1.7
11.90647 1.7
11.9359 1.7
11.96669 1.7
11.99664 1.7
12.02997 1.7
12.06008 1.7
12.09318 1.7
12.12631 1.7
12.15831 1.7
12.19165 1.7
12.22427 1.7
12.25482 1.7
12.288 1.7
12.32134 1.7
12.35467 1.7
12.38603 1.7
12.41937 1.7
12.45178 1.7
12.48511 1.7
12.51845 1.7
12.55178 1.7
12.58166 1.7
12.61171 1.7
12.64473 1.7
12.67807 1.7
12.70827 1.7
12.74111 1.7
12.77349 1.7
12.8045 1.7
12.83783 1.7
12.8689 1.7
12.89824 1.7
12.93158 1.7
12.9611 1.7
12.99444 1.7
13.02777 1.7
13.0611 1.7
13.0928 1.7
13.12346 1.7
13.15679 1.7
13.18911 1.7
13.22245 1.7
13.25485 1.7
13.28355 1.7
13.31688 1.7
13.3499 1.7
13.38148 1.7
13.41482 1.7
13.44574 1.7
13.47908 1.7
13.5085 1.7
13.53816 1.7
13.5691 1.7
13.59836 1.7
13.63169 1.7
13.66355 1.7
13.69555 1.7
13.72474 1.7
13.75599 1.7
13.78932 1.7
13.8193 1.7
13.84821 1.7
13.87765 1.7
13.90646 1.7
13.93979 1.7
13.96961 1.7
14.00146 1.7
14.03357 1.7
14.0669 1.7
14.10024 1.7
14.13082 1.7
14.15944 1.7
14.19277 1.7
14.22155 1.7
14.25488 1.7
14.28821 1.7
14.3208 1.7
14.35007 1.7
14.38126 1.7
14.4146 1.7
14.4444 1.7
14.47377 1.7
14.50628 1.7
14.53481 1.7
14.56814 1.7
14.60044 1.7
14.63055 1.7
14.65956 1.7
14.68971 1.7
14.72305 1.7
14.75442 1.7
14.78457 1.7
14.81439 1.7
14.84522 1.7
14.87856 1.7
14.91084 1.7
14.94127 1.7
14.97456 1.7
15.00574 1.7
15.03908 1.7
15.06909 1.7
15.10074 1.7
15.13117 1.7
15.1627 1.7
15.19604 1.7
15.22677 1.7
15.25832 1.7
15.28815 1.7
15.32148 1.7
15.35482 1.7
15.38815 1.7
15.41704 1.7
15.44835 1.7
15.47752 1.7
15.51085 1.7
15.54156 1.7
15.57489 1.7
15.60516 1.7
15.6385 1.7
15.67183 1.7
15.70301 1.5
15.73307 1.5
15.76336 1.3
15.79283 1.3
15.82616 0.85
15.8595 0.65
15.8893 0.65
15.92264 0.4
15.95597 0.4
15.9893 0.4
16.0203 0.4
16.04921 0.4
16.07917 0.4
16.10854 0.4
16.14188 0.4
16.17207 0.4
16.20518 0.4
16.23473 0.4
16.26483 0.4
16.29816 0.4
16.33093 0.2
16.36427 0.2
16.39408 -0.2
16.42742 -0.2
16.46075 -0.2
16.49158 -0.4
16.52132 -0.4
16.54963 -0.4
16.58281 -0.4
16.61614 -0.4
16.64557 -0.4
16.67674 -0.4
16.70909 -0.4
16.73855 -0.4
16.77188 -0.4
16.80522 -0.4
16.83743 -0.4
16.86742 -0.65
16.89867 -0.65
16.932 -0.65
16.96534 -0.65
16.99495 -0.65
17.02828 -0.65
17.05812 -0.85
17.09145 -0.85
17.12154 -0.85
17.15487 -0.85
17.18509 -0.85
17.21842 -0.85
17.25175 -0.85
17.28242 -0.85
17.31238 -0.85
17.34196 -0.85
17.37104 -0.85
17.40438 -0.85
17.43624 -0.85
17.46626 -0.85
17.49633 -0.85
17.52664 -0.85
17.55997 -0.85
17.59312 -0.85
17.62645 -0.85
17.65642 -0.85
17.68558 -0.85
17.71891 -0.85
17.75224 -0.85
17.78558 -0.85
17.81521 -0.85
17.84648 -0.85
17.87981 -0.85
17.91115 -0.65
17.93992 -0.65
17.97281 -0.65
18.00181 -0.65
18.03514 -0.4
18.06411 -0.4
18.09586 -0.4
18.12919 0
18.16174 0.4
18.19507 1.05
18.2284 1.05
18.25737 1.3
18.29071 2.15
18.32404 2.15
18.35737 2.4
18.38949 2.8
18.41956 2.8
18.45241 3.9
18.48328 5.45
18.51661 5.45
18.54661 6.3
18.57606 7.2
18.60696 7.2
18.63729 7.4
18.67063 7.4
18.70267 7.4
18.73372 7.4
18.76278 7.4
18.79563 7.4
18.82896 7.4
18.85902 7.4
18.89055 7.4
18.92146 7.4
18.95065 7.4
18.98399 7.4
19.01245 7.4
19.04291 7.4
19.07147 7.4
19.10288 7.4
19.13622 7.4
19.16895 7.4
19.19982 7.4
19.23195 7.4
19.26092 7.4
19.29425 7.4
19.32758 7.4
19.36007 7.6
19.39337 7.6
19.42332 8.05
19.45665 8.7
19.48631 8.7
19.5151 9.35
19.54844 10
19.57836 10
19.61169 10.25
19.64194 10.45
19.67372 10.45
19.70258 10.7
19.73376 10.7
19.76709 11.1
19.79648 11.35
19.82522 11.35
19.85721 11.75
19.88701 12.2
19.92035 12.2
19.95206 12.65
19.98539 13.3
20.01672 13.3
20.04671 14.15
20.08004 14.85
20.11337 14.85
20.14665 16.15
20.17998 17.45
20.21056 17.45
20.24389 18.55
20.27723 19.85
20.31056 19.85
20.34098 21.4
20.3713 22.7
20.40463 22.7
20.43797 24.2
20.46685 25.75
20.50018 25.75
20.53172 27.3
20.56506 28.6
20.59359 29.9
20.62631 29.9
20.65902 31
20.68863 31
20.72196 32.3
20.75529 33.2
20.78863 34.7
20.81861 34.7
20.85007 35.8
20.8834 37.1
20.91317 37.1
20.94587 38.4
20.97516 38.4
21.00612 39.75
21.03946 41.05
21.07279 41.05
21.10545 42.55
21.13507 43.9
21.1684 43.9
21.20173 45.2
21.23078 46.5
21.26411 46.5
21.29329 47.6
21.32245 47.6
21.35578 48.7
21.38742 49.8
21.42012 50.85
21.45009 50.85
21.48257 51.55
21.51591 53.05
21.54833 53.05
21.57891 54.35
21.60945 54.35
21.6402 55.25
21.67353 56.35
21.7034 56.35
21.73648 57.65
21.76982 58.75
21.79859 58.75
21.83193 59.85
21.86344 60.9
21.89376 60.9
21.9271 62
21.96043 62.9
21.99376 64
22.02406 64
22.05607 64.85
22.08724 64.85
22.12058 65.75
22.15391 66.8
22.18242 66.8
22.21544 67.7
22.24878 68.55
22.27852 68.55
22.31185 69.45
22.34192 70.3
22.37087 70.3
22.40097 71.2
22.43196 71.65
22.46529 71.65
22.49685 71.65
22.52689 71.65
22.55859 71.65
22.58982 71.65
22.62316 71.85
22.65467 71.85
22.68465 72.05
22.71798 72.7
22.75109 72.7
22.78442 72.95
22.81775 72.95
22.84995 72.95
22.88021 72.95
22.91031 72.95
22.94365 72.95
22.97611 72.95
23.0055 72.95
23.03667 72.95
23.07 72.95
23.10334 72.95
23.13294 72.95
23.163 73.35
23.19633 73.8
23.22762 73.8
23.26095 74.45
23.29203 74.9
23.32482 74.9
23.3554 75.55
23.38873 76.2
23.42206 76.2
23.4554 76.85
23.48873 77.95
23.52016 77.95
23.55108 79.05
23.58442 80.35
23.61564 80.35
23.64898 81.45
23.67963 83
23.71088 83
23.74421 84.3
23.77285 85.4
23.80618 85.4
23.83607 86.7
23.86627 86.7
23.8996 87.8
23.93294 88.25
23.96336 88.25
23.9967 88.65
24.02937 88.65
24.0627 88.65
24.09373 88.65
24.12529 88.65
24.15832 88.65
24.19048 88.65
24.22382 88.65
24.25715 88.65
24.28951 88.65
24.32285 88.65
24.35298 88.65
24.38631 88.65
24.41467 88.65
24.44592 88.65
24.47839 88.65
24.50936 88.65
24.54269 88.65
24.57373 88.65
24.60601 88.65
24.63678 88.65
24.67011 89.1
24.70344 89.55
24.73678 90
24.76732 90
24.79589 90.4
24.82632 91.05
24.85965 91.05
24.89298 91.95
24.92524 92.8
24.95857 92.8
24.99024 93.45
25.02357 94.15
25.05691 94.15
25.08933 94.55
25.11883 95
25.15217 95
25.1855 95.45
25.21825 95.45
25.2501 95.45
25.27892 95.45
25.31038 95.45
25.34372 95.45
25.37229 95.45
25.40562 95.45
25.43635 95.45
25.46968 95.45
25.50302 95.45
25.53273 95.45
25.56326 95.45
25.59475 95.45
25.62748 95.45
25.66081 95.45
25.69415 95.45
25.72748 95.45
25.75856 95.45
25.78843 95.45
25.82177 95.45
25.85321 95.45
25.88397 95.45
25.91731 95.45
25.94596 95.45
25.97929 95.45
26.00867 95.45
26.03876 95.45
26.06727 95.45
26.09831 95.45
26.13164 95.45
26.16194 95.45
26.19527 95.45
26.2286 95.45
26.26181 95.45
26.29514 95.45
26.32848 95.45
26.36181 95.45
26.39475 95.45
26.42808 95.45
26.46142 95.45
26.49475 95.45
26.52499 95.45
26.55615 95.45
26.58948 95.45
26.62281 95.45
26.65181 95.45
26.68213 95.45
26.71037 95.45
26.74059 95.45
26.77392 95.45
26.80587 95.45
26.83677 95.45
26.87011 95.45
26.89893 95.45
26.93226 95.45
26.9638 95
26.99598 94.55
27.02677 94.55
27.05655 93.9
27.08989 93.25
27.12 93.25
27.15248 92.15
27.18402 91.5
27.21513 91.5
27.24846 90.85
27.27935 90
27.30883 90
27.33762 89.3
27.37027 89.3
27.4036 88.45
27.43483 88
27.46464 88
27.49604 87.55
27.52514 87.15
27.55847 87.15
27.59181 86.9
27.62514 86.5
27.65556 86.5
27.68611 85.8
27.71944 84.75
27.75124 84.75
27.78028 83.4
27.81256 81.65
27.84393 81.65
27.87727 80.35
27.90863 78.85
27.93888 78.85
27.96995 77.1
28.00207 76
28.03541 76
28.06874 74.9
28.098 74.25
28.13133 74.25
28.16459 72.95
28.19792 71.2
28.22691 71.2
28.26024 69.9
28.29206 68.35
28.32351 68.35
28.35684 66.4
28.39017 64.2
28.41959 64.2
28.45183 62.25
28.48174 60.05
28.51507 60.05
28.54501 57.65
28.57834 55.45
28.60822 55.45
28.63779 52.85
28.67112 49.8
28.70209 49.8
28.73135 47.4
28.76152 47.4
28.79486 44.1
28.82819 42.35
28.8596 42.35
28.89055 38.2
28.92085 35.6
28.95121 35.6
28.98454 32.5
29.01414 29.45
29.04501 29.45
29.07474 27.3
29.10679 27.3
29.14013 24.65
29.17157 22.25
29.20259 22.25
29.23325 19.85
29.26658 17.9
29.29991 15.5
29.33145 15.5
29.36053 13.3
29.3906 13.3
29.42393 11.35
29.45727 9.15
29.48625 9.15
29.51772 7.4
29.55105 5.2
29.58438 5.2
29.61772 3.05
29.64847 1.3
29.68176 1.3
29.7151 -0.65
29.74583 -1.7
29.77916 -2.4
29.8072 -2.4
29.83692 -3.45
29.866 -3.45
29.89934 -4.8
29.93267 -6.55
29.96282 -6.55
29.99107 -8.3
30.0244 -9.35
30.05773 -9.35
30.09107 -9.8
30.12204 -10
30.15335 -10
30.18668 -10
30.21634 -10.25
30.24967 -10.25
30.28015 -10.25
30.30887 -10.25
30.33932 -10.25
30.37034 -10.25
30.40368 -10.7
30.43268 -10.7
30.46511 -11.1
30.49552 -11.1
30.52676 -11.55
30.56009 -12.2
30.59118 -12.2
30.62138 -12.65
30.65134 -12.85
30.68016 -12.85
30.7135 -12.85
30.74683 -12.65
30.78016 -12.65
30.8135 -12.65
30.84578 -12.2
30.87911 -12.2
30.90951 -12
30.94108 -11.1
30.97218 -11.1
31.00436 -10.45
31.03769 -9.8
31.07024 -9.8
31.10048 -9.35
31.13055 -8.95
31.16216 -8.95
31.19549 -8.95
31.22883 -8.95
31.25794 -8.95
31.29127 -8.95
31.32073 -8.95
31.35406 -8.95
31.38479 -8.7
31.41512 -8.5
31.44412 -8.5
31.47745 -7.6
31.51079 -7.6
31.54094 -6.75
31.57074 -5.85
31.60082 -5.85
31.63389 -5
31.66722 -4.15
31.69803 -4.15
31.73137 -3.25
31.76025 -2.8
31.79358 -2.8
31.82691 -2.6
31.85728 -2.4
31.88726 -2.4
31.91735 -2.4
31.94653 -2.4
31.97986 -2.4
32.01169 -2.15
32.04317 -2.15
32.07306 -1.95
32.10338 -1.5
32.13671 -1.5
32.17005 -1.05
32.19944 0.4
32.23045 0.4
32.25972 1.05
32.29305 1.95
32.32638 1.95
32.35798 2.8
32.3869 3.45
32.41962 3.45
32.45296 3.9
32.48629 4.15
32.51698 4.15
32.54818 4.15
32.58151 4.15
32.61485 4.15
32.64704 4.15
32.68037 4.15
32.71237 4.15
32.7457 4.15
32.77904 4.15
32.81018 4.15
32.84238 4.15
32.87571 4.15
32.90649 4.15
32.93982 4.15
32.97316 4.35
33.0027 4.55
33.03588 4.55
33.06655 4.8
33.09988 5
33.12999 5
33.159 5.2
33.19233 5.2
33.22328 5.2
33.25661 5.2
33.28654 5.2
33.3166 5.2
33.34493 5.2
33.37826 5.2
33.41159 5.2
33.44493 5.45
33.47826 5.45
33.51006 5.65
33.54168 5.85
33.57501 5.85
33.60411 6.1
33.63744 6.1
33.66909 6.1
33.69956 6.3
33.73289 6.3
33.76342 6.3
33.79245 6.3
33.82397 6.3
33.85661 6.3
33.88994 6.3
33.91911 6.3
33.95244 6.3
33.98331 6.3
34.01395 6.3
34.04728 6.3
34.08062 6.3
34.11005 6.3
34.13969 6.3
34.16921 6.1
34.20255 6.1
34.23415 5.85
34.26368 5.65
34.29212 5.65
34.32545 5.45
34.35878 5
34.38845 5
34.4166 4.55
34.44613 4.55
34.47546 4.15
34.5088 3.7
34.54213 3.7
34.57504 3.45
34.60675 3.25
34.63729 3.25
34.67062 3.25
34.70121 3.05
34.73195 3.05
34.76366 3.05
34.79445 3.05
34.82778 3.05
34.85847 2.8
34.8918 2.4
34.92306 2.4
34.95639 1.95
34.98973 1.3
35.02149 0.85
35.05068 0.85
35.08398 0.4
35.11343 0.4
35.14676 -0.2
35.17498 -0.4
35.20832 -0.4
35.24011 -0.4
35.26936 -0.65
35.3027 -0.65
35.33414 -0.85
35.36466 -1.3
35.39478 -1.3
35.42575 -1.7
35.45908 -2.4
35.49242 -2.4
35.52575 -3.05
35.55494 -3.45
35.58671 -3.45
35.62004 -4.15
35.65171 -4.8
35.68172 -4.8
35.71267 -5.2
35.7443 -5.2
35.77764 -5.65
35.80863 -5.85
35.83838 -5.85
35.86741 -6.1
35.90007 -6.3
35.93341 -6.3
35.96347 -6.3
35.99575 -6.3
36.02573 -6.3
36.05906 -6.75
36.09239 -6.75
36.1238 -7.2
36.15713 -7.4
36.1871 -7.4
36.21815 -7.85
36.25149 -8.05
36.28482 -8.05
36.31379 -8.05
36.34394 -8.05
36.37728 -8.05
36.41061 -8.05
36.44025 -8.05
36.47152 -8.05
36.50486 -8.05
36.53437 -8.05
36.5677 -8.05
36.60025 -8.05
36.63274 -8.05
36.66309 -8.05
36.69257 -8.05
36.72591 -8.05
36.75429 -8.05
36.78539 -8.05
36.81673 -8.05
36.84609 -8.05
36.87943 -8.05
36.91006 -7.85
36.93999 -7.85
36.97063 -7.6
37.00352 -7.4
37.03685 -7.4
37.06784 -6.95
37.09777 -6.55
37.12699 -6.55
37.15836 -6.3
37.19169 -6.3
37.2235 -6.3
37.25304 -6.3
37.28307 -6.3
37.31204 -6.1
37.34537 -5.85
37.37546 -5.85
37.40787 -5.45
37.43681 -5
37.46723 -5
37.50056 -4.55
37.53257 -4.15
37.56182 -4.15
37.59145 -3.9
37.62093 -3.9
37.65427 -3.45
37.68396 -3.45
37.71729 -3.45
37.75046 -3.25
37.78035 -3.25
37.81369 -3.25
37.8448 -3.25
37.87813 -3.25
37.91146 -3.25
37.94259 -3.05
37.97592 -3.05
38.00826 -3.05
38.03707 -2.4
38.06791 -1.95
38.09922 -1.95
38.13256 -0.4
38.16228 1.5
38.19316 1.5
38.22404 3.05
38.25291 3.05
38.28624 3.7
38.31953 3.9
38.34906 3.9
38.37767 3.9
38.41101 3.9
38.44434 3.9
38.47366 3.9
38.50257 3.9
38.5359 3.9
38.56583 4.15
38.59916 4.55
38.63047 4.55
38.66175 4.8
38.69372 5
38.72547 5
38.7588 5.2
38.79213 5.2
38.82064 5.2
38.85305 5.2
38.88638 5.2
38.91972 5.2
38.94868 5.2
38.97839 5.2
39.00846 5.2
39.04179 5.2
39.07513 5.2
39.10673 5.2
39.13552 5.2
39.16886 5.2
39.19958 5.2
39.23292 5.2
39.26625 5.2
39.29942 5.2
39.3309 5.2
39.36142 5.2
39.39475 5.2
39.42607 5.2
39.4594 5.2
39.49044 5.2
39.51998 5.2
39.55331 5.2
39.58152 5.2
39.61295 5.2
39.64222 5.2
39.67256 5.2
39.7059 5.2
39.73923 5.2
39.76894 5.2
39.79837 5.2
39.82689 5.2
39.86022 5.2
39.89148 5.2
39.92132 5.2
39.94977 5.2
39.98207 5.2
40.01538 5.2
40.04501 5.2
40.07365 5.2
40.10301 5.2
40.13103 5.2
40.16251 5.2
40.19585 5.2
40.2276 5.2
40.26093 5.2
40.29427 5.2
40.32371 5.2
40.35704 5.2
40.38554 5.2
40.41554 5.2
40.44621 5.2
40.47621 5.2
40.50954 5.2
40.54288 5.2
40.57436 5.2
40.60769 5.2
40.63597 5.2
40.6693 5.2
40.6986 5.2
40.72874 5.2
40.76125 5.2
40.79459 5.2
40.82792 5
40.85902 5
40.88786 4.15
40.91728 4.15
40.94751 3.05
40.98084 1.95
41.01051 1.95
41.04384 0.65
41.07417 -0.4
41.10554 -0.4
41.13887 -1.05
41.1722 -1.05
41.20055 -1.05
41.23366 -1.05
41.26699 -1.05
41.30032 -1.05
41.33239 -1.05
41.36221 -1.05
41.39042 -1.05
41.42197 -1.05
41.4553 -1.05
41.48532 -1.05
41.51865 -1.05
41.55199 -1.05
41.58532 -1.05
41.61865 -1.05
41.64763 -1.05
41.67766 -1.05
41.70839 -1.3
41.73957 -1.5
41.7729 -1.5
41.80624 -1.5
41.83678 -1.7
41.86841 -1.7
41.89715 -1.95
41.93048 -1.95
41.96382 -1.95
41.99332 -1.95
42.02665 -2.15
42.0583 -2.15
42.09163 -2.4
42.12497 -2.6
42.1583 -2.6
42.18745 -3.05
42.22078 -3.45
42.25412 -3.7
42.28689 -3.7
42.31567 -3.9
42.34481 -3.9
42.37553 -4.15
42.40886 -4.15
42.43948 -4.15
42.47281 -4.15
42.50571 -4.15
42.53503 -4.15
42.56837 -4.15
42.60066 -4.15
42.63066 -4.15
42.66114 -4.15
42.69447 -4.15
42.7278 -4.15
42.75992 -3.9
42.78867 -3.45
42.81833 -3.45
42.8473 -3.05
42.88063 -3.05
42.91258 -2.6
42.94272 -2.15
42.97328 -2.15
43.00364 -1.7
43.03697 -1.7
43.0703 -1.7
43.09896 -1.7
43.1323 -1.7
43.16563 -1.7
43.19896 -1.7
43.22879 -1.7
43.26022 -1.7
43.29355 -1.7
43.32364 -1.7
43.35698 -1.7
43.38887 -1.7
43.41895 -1.7
43.44922 -1.7
43.48191 -1.7
43.51524 -1.7
43.54708 -1.7
43.57882 -1.7
43.60746 -1.7
43.63696 -1.7
43.6703 -1.7
43.69963 -1.7
43.72919 -1.7
43.76056 -1.7
43.78944 -1.7
43.82278 -1.7
43.85095 -1.5
43.88232 -1.5
43.91105 -1.3
43.94223 -1.05
43.97556 -1.05
44.0061 -0.65
44.03479 -0.4
44.06505 -0.4
44.09376 -0.4
44.12709 -0.2
44.1573 -0.2
44.19031 -0.2
44.21901 -0.2
44.2492 0.2
44.28253 0.65
44.31586 0.65
44.34446 0.85
44.37332 1.05
44.40338 1.05
44.43671 1.3
44.46487 1.7
44.49464 1.7
44.52293 1.95
44.55443 1.95
44.58776 1.95
44.6211 2.15
44.6516 2.15
44.68355 2.15
44.71476 2.15
44.74809 2.15
44.77754 2.15
44.80977 2.15
44.83815 2.15
44.87149 2.15
44.90482 2.15
44.93518 2.15
44.96387 2.15
44.9972 2.15
45.02758 2.15
45.06091 2.15
45.09306 2.15
45.12391 2.15
45.15353 2.15
45.18436 2.15
45.2177 2.15
45.25031 2.15
45.27946 2.15
45.3091 2.15
45.34149 2.15
45.37482 2.15
45.40321 2.15
45.43654 2.15
45.46581 2.15
45.49573 2.15
45.52906 2.15
45.5624 2.15
45.59573 2.15
45.62606 1.7
45.65907 1.7
45.6924 0.85
45.72274 0.85
45.75271 0.85
45.78172 0.85
45.81202 0.85
45.84535 0.85
45.87555 0.85
45.90664 0.85
45.93998 0.85
45.97084 0.85
46.00417 0.85
46.0359 0.85
46.06606 0.85
46.09629 0.85
46.12962 0.85
46.16296 0.85
46.19425 0.85
46.22346 0.85
46.25645 0.85
46.28528 0.85
46.31861 0.85
46.34962 0.85
46.37983 0.85
46.4082 0.85
46.44153 0.85
46.47486 0.85
46.50677 0.85
46.53926 0.85
46.56851 0.85
46.59828 0.85
46.63161 0.85
46.65979 0.85
46.68903 0.85
46.71748 0.85
46.74748 0.85
46.78082 0.85
46.81402 0.85
46.84249 0.85
46.87494 0.85
46.90827 0.85
46.9416 0.85
46.97486 0.85
47.00438 0.85
47.03325 0.85
47.0638 0.85
47.09714 0.85
47.12992 0.85
47.16325 0.85
47.19511 0.85
47.22386 0.85
47.25719 0.85
47.2885 0.85
47.32001 0.85
47.35138 0.85
47.38471 0.85
47.41805 0.85
47.44711 0.85
47.47818 0.85
47.511 0.85
47.54155 0.85
47.57488 0.85
47.6045 0.85
47.63453 0.85
47.6637 0.85
47.69704 0.85
47.73037 0.85
47.76014 0.85
47.79221 0.85
47.82145 0.85
47.85077 0.85
47.88411 0.85
47.91379 0.85
47.94335 0.85
47.97668 0.85
48.00688 0.85
48.04021 0.85
48.07129 0.85
48.10291 0.85
48.13326 0.85
48.1646 0.85
48.19793 0.85
48.22625 0.85
48.25571 0.85
48.28904 0.85
48.32198 0.85
48.35532 0.85
48.38865 0.85
48.42147 0.85
48.45229 0.85
48.48214 0.85
48.51547 0.85
48.54517 0.85
48.57851 0.85
48.61184 0.85
48.64126 0.85
48.67459 0.85
48.70394 0.85
48.73185 0.85
48.76103 0.85
48.79042 0.85
48.82375 0.85
48.8541 0.85
48.88576 0.85
48.91888 0.85
48.95007 0.85
48.9834 0.85
49.0136 0.85
49.04693 0.85
49.07664 0.85
49.10998 0.85
49.14331 0.85
49.17251 0.85
49.20483 0.85
49.2366 0.85
49.26675 0.85
49.30008 0.85
49.32986 0.85
49.36319 0.85
49.39223 0.85
49.42556 0.85
49.45889 0.85
49.48779 0.85
49.51752 0.85
49.5474 0.85
49.58039 0.85
49.61373 0.85
49.64309 0.85
49.67269 0.85
49.70602 0.85
49.73735 0.85
49.77069 0.85
49.79882 0.85
49.83172 0.85
49.85983 0.85
49.88986 0.85
49.92319 0.85
49.95457 0.85
49.9879 0.85
50.02123 0.85
50.05173 0.85
50.08506 0.85
50.11455 0.85
50.14589 0.85
50.17437 0.85
50.20406 0.85
50.23739 0.85
50.26756 0.85
50.29587 0.85
50.32481 0.85
50.3541 0.85
50.38744 0.85
50.41688 0.85
50.44836 0.85
50.4788 0.85
50.51213 0.85
50.54547 0.85
50.57595 0.85
50.60627 0.85
50.63699 0.85
50.66854 0.85
50.70187 0.85
50.73035 0.85
50.76037 0.85
50.7937 0.85
50.82242 0.85
50.85575 0.85
50.88558 0.85
50.91522 0.85
50.94545 0.85
50.97641 0.85
51.00974 0.85
51.043 0.85
51.075 0.85
51.10834 0.85
51.13894 0.85
51.17228 0.85
51.20561 0.85
51.23559 0.85
51.26629 0.85
51.29682 0.85
51.33015 0.85
51.36349 0.85
51.39682 0.85
51.42667 0.85
51.45876 0.85
51.49209 0.85
51.5215 0.85
51.55237 0.85
51.58136 0.85
51.61023 0.85
51.64356 0.85
51.6769 0.85
51.70643 0.85
51.73956 0.85
51.76937 0.85
51.8027 0.85
51.83604 0.85
51.86534 0.85
51.89688 0.85
51.92761 0.85
51.96095 0.85
51.99189 0.85
52.02492 0.85
52.05464 0.85
52.08454 0.85
52.11787 0.85
52.148 0.85
52.17717 0.85
52.20741 0.85
52.23987 0.85
52.2732 0.85
52.30616 0.85
52.33949 0.85
52.37283 0.85
52.4024 0.85
52.43574 0.85
52.46616 0.85
52.49949 0.85
52.53283 0.85
52.56332 0.85
52.59665 0.85
52.62498 0.85
52.65671 0.85
52.68714 0.85
52.7191 0.85
52.75244 0.85
52.78249 0.85
52.81583 0.85
52.84808 0.85
52.88141 0.85
52.91475 0.85
52.94808 0.85
52.97759 0.85
53.00874 0.85
53.0414 0.85
53.07473 0.85
53.10614 0.85
53.13446 0.85
53.16772 0.85
53.19567 0.85
53.229 0.85
53.25739 0.85
53.29072 0.85
53.31907 0.85
53.3524 0.85
53.38573 0.85
53.41468 0.85
53.44777 0.85
53.47779 0.85
53.50875 0.85
53.54208 0.85
53.57328 0.85
53.6041 0.85
53.63487 0.85
53.66515 0.85
53.69848 0.85
53.72912 0.85
53.75784 0.85
53.78786 0.85
53.81871 0.85
53.85204 0.85
53.88115 0.85
53.91169 0.85
53.94062 0.85
53.97148 0.85
54.00481 0.85
54.03814 0.85
54.06758 0.85
54.10028 0.85
54.12951 0.85
54.16285 0.85
54.19175 0.85
54.22509 0.85
54.25314 0.85
54.283 0.85
54.31624 0.85
54.34781 0.85
54.37656 0.85
54.40615 0.85
54.43417 0.85
54.46751 0.85
54.49525 0.85
54.52441 0.85
54.55316 0.85
54.58317 0.85
54.6165 0.85
54.64974 0.85
54.68245 0.85
54.7142 0.85
54.74291 0.85
54.77625 0.85
54.80958 0.85
54.84029 0.85
54.86922 0.85
54.8995 0.85
54.93283 0.85
54.9633 0.85
54.99664 0.85
55.02603 0.85
55.05526 0.85
55.08859 0.85
55.11811 0.85
55.14762 0.85
55.17636 0.85
55.20583 0.85
55.23916 0.85
55.2725 0.85
55.30283 0.85
55.33279 0.85
55.36334 0.85
55.39667 0.85
55.42502 0.85
55.45835 0.85
55.49169 0.85
55.52375 0.85
55.55709 0.85
55.59042 0.85
55.61955 0.85
55.64883 0.85
55.68073 0.85
55.71407 0.85
55.7466 0.85
55.77686 0.85
55.80489 0.85
55.83778 0.85
55.87111 0.85
55.90444 0.85
55.93294 0.85
55.96212 0.85
55.99545 0.85
56.02878 0.85
56.06211 0.85
56.09338 0.85
56.1219 0.85
56.15523 0.85
56.18856 0.85
56.21776 0.85
56.2497 0.85
56.27914 0.85
56.30783 0.85
56.34116 0.85
56.3706 0.85
56.40032 0.85
56.43365 0.85
56.46699 0.85
56.50032 0.85
56.53366 0.85
56.56197 0.85
56.5934 0.85
56.6251 0.85
56.65843 0.85
56.68934 0.85
56.72267 0.85
56.756 0.85
56.78804 0.85
56.82138 0.85
56.85471 0.85
56.88313 0.85
56.9134 0.85
56.94235 0.85
56.97569 0.85
57.00451 0.85
57.03569 0.85
57.06468 0.85
57.0952 0.85
57.12854 0.85
57.16187 0.85
57.19041 0.85
57.21939 0.85
57.24758 0.85
57.28091 0.85
57.31425 0.85
57.34356 0.85
57.37392 0.85
57.40725 0.85
57.44059 0.85
57.47071 0.85
57.50404 0.85
57.53541 0.85
57.56487 0.85
57.5982 0.85
57.63012 0.85
57.65997 0.85
57.69269 0.85
57.72483 0.85
57.75816 0.85
57.78807 0.85
57.82099 0.85
57.85163 0.85
57.88164 0.85
57.91497 0.85
57.94422 0.85
57.97756 0.85
58.00611 0.85
58.03639 0.85
58.06973 0.85
58.10306 0.85
58.13639 0.85
58.16501 0.85
58.19835 0.85
58.23168 0.85
58.26128 0.85
58.29187 0.85
58.32436 0.85
58.35615 0.85
58.38948 0.85
58.41964 0.85
58.44843 0.85
58.47991 0.85
58.50986 0.85
58.5432 0.85
58.57529 0.85
58.60654 0.85
58.63987 0.85
58.6732 0.85
58.70654 0.85
58.73819 0.85
58.77152 0.85
58.80486 0.85
58.83549 0.85
58.86882 0.85
58.89805 0.85
58.93138 0.85
58.96022 0.85
58.98905 0.85
59.02238 0.85
59.05173 0.85
59.07993 0.85
59.10948 0.85
59.14242 0.85
59.17575 0.85
59.2049 0.85
59.23505 0.85
59.26422 0.85
59.2947 0.85
59.32804 0.85
59.35757 0.85
59.3909 0.85
59.41998 0.85
59.45053 0.85
59.48386 0.85
59.5172 0.85
59.54786 0.85
59.57664 0.85
59.60701 0.85
59.64034 0.85
59.67027 0.85
59.70037 0.85
59.73103 0.85
59.75937 0.85
59.7927 0.85
59.82418 0.85
59.85751 0.85
59.89085 0.85
59.92267 0.85
59.956 0.85
59.98908 0.85
60.01872 0.85
60.0479 0.85
60.07686 0.85
60.1102 0.85
60.14353 0.85
60.17335 0.85
60.2017 0.85
60.23086 0.85
60.26419 0.85
60.29422 0.85
60.32558 0.85
60.35892 0.85
60.38739 0.85
60.42072 0.85
60.44939 0.85
60.48272 0.85
60.51302 0.85
60.54364 0.85
60.57697 0.85
60.6066 0.85
60.63993 0.85
60.67326 0.85
60.7028 0.85
60.73613 0.85
60.76448 0.85
60.79781 0.85
60.82671 0.85
60.86004 0.85
60.89337 0.85
60.92548 0.85
60.9583 0.85
60.98917 0.85
61.01872 0.85
61.05206 0.85
61.0809 0.85
61.11088 0.85
61.14421 0.85
61.17412 0.85
61.20745 0.85
61.24029 0.85
61.27024 0.85
61.29977 0.85
61.32989 0.85
61.36322 0.85
61.39508 0.85
61.42739 0.85
61.45659 0.85
61.48717 0.85
61.5205 0.85
61.55384 0.85
61.58346 0.85
61.61363 0.85
61.64204 0.85
61.67537 0.85
61.70716 0.85
61.73614 0.85
61.76623 0.85
61.79596 0.85
61.82929 0.85
61.86009 0.85
61.89136 0.85
61.92099 0.85
61.95196 0.85
61.98529 0.85
62.01432 0.85
62.04638 0.85
62.07515 0.85
62.10848 0.85
62.14181 0.85
62.17061 0.85
62.1996 0.85
62.23118 0.85
62.2627 0.85
62.29604 0.85
62.3253 0.85
62.35489 0.85
62.3837 0.85
62.41703 0.85
62.45036 0.85
62.47967 0.85
62.50854 0.85
62.54187 0.85
62.5718 0.85
62.60514 0.85
62.63321 0.85
62.66654 0.85
62.69646 0.85
62.72561 0.85
62.75894 0.85
62.79064 0.85
62.81988 0.85
62.85249 0.85
62.88467 0.85
62.918 0.85
62.94971 0.85
62.98023 0.85
63.01292 0.85
63.04235 0.85
63.07569 0.85
63.10521 0.85
63.13574 0.85
63.16461 0.85
63.19794 0.85
63.23128 0.85
63.26043 0.85
63.29033 0.85
63.31901 0.85
63.34986 0.85
63.38319 0.85
63.41412 0.85
63.44533 0.85
63.47866 0.85
63.5093 0.85
63.54264 0.85
63.57071 0.85
63.60043 0.85
63.6286 0.85
63.66059 0.85
63.69392 0.85
63.72411 0.85
63.75476 0.85
63.78668 0.85
63.81973 0.85
63.85306 0.85
63.88549 0.85
63.91478 0.85
63.94812 0.85
63.97652 0.85
64.00985 0.85
64.04318 0.85
64.07246 0.85
64.10471 0.85
64.13564 0.85
64.16898 0.85
64.20093 0.85
64.23426 0.85
64.26541 0.85
64.29862 0.85
64.33195 0.85
64.3612 0.85
64.39028 0.85
64.42004 0.85
64.45338 0.85
64.48672 0.85
64.51962 0.85
64.55296 0.85
64.58629 0.85
64.61903 0.85
64.65237 0.85
64.68529 0.85
64.71621 0.85
64.74619 0.85
64.77953 0.85
64.81286 0.85
64.84426 0.85
64.8747 0.85
64.90462 0.85
64.93796 0.85
64.97129 0.85
65.00323 0.85
65.03226 0.85
65.06322 0.85
65.09186 0.85
65.12519 0.85
65.15675 0.85
65.1881 0.85
65.22141 0.85
65.25254 0.85
65.28587 0.85
65.31504 0.85
65.34738 0.85
65.38061 0.85
65.41394 0.85
65.44727 0.85
65.47807 0.85
65.50926 0.85
65.53864 0.85
65.57197 0.85
65.6053 0.85
65.63863 0.85
65.66765 0.85
65.69899 0.85
65.73007 0.85
65.76341 0.85
65.79331 0.85
65.82295 0.85
65.85529 0.85
65.88436 0.85
65.91769 0.85
65.94733 0.85
65.97757 0.85
66.00654 0.85
66.03728 0.85
66.07061 0.85
66.09889 0.85
66.13223 0.85
66.16506 0.85
66.19618 0.85
66.22952 0.85
66.25997 0.85
66.28934 0.85
66.31848 0.85
66.34782 0.85
66.38116 0.85
66.41278 0.85
66.44411 0.85
66.47369 0.85
66.50676 0.85
66.54009 0.85
66.57163 0.85
66.60497 0.85
66.63628 0.85
66.66523 0.85
66.69856 0.85
66.72715 0.85
66.75719 0.85
66.79053 0.85
66.81982 0.85
66.85316 0.85
66.88219 0.85
66.91042 0.85
66.94011 0.85
66.97014 0.85
67.00348 0.85
67.03142 0.85
67.06129 0.85
67.08987 0.85
67.1232 0.85
67.15653 0.85
67.18987 0.85
67.21844 0.85
67.25031 0.85
67.27882 0.85
67.31215 0.85
67.34548 0.85
67.37541 0.85
67.40373 0.85
67.43707 0.85
67.4704 0.85
67.50247 0.85
67.5358 0.85
67.56914 0.85
67.60247 0.85
67.63167 0.85
67.66038 0.85
67.68986 0.85
67.72319 0.85
67.75652 0.85
67.78986 0.85
67.81908 0.85
67.85241 0.85
67.88574 0.85
67.91551 0.85
67.94498 0.85
67.97831 0.85
68.00779 0.85
68.04112 0.85
68.07092 0.85
68.09924 0.85
68.12996 0.85
68.15926 0.85
68.1926 0.85
68.2218 0.85
68.25154 0.85
68.28441 0.85
68.31774 0.85
68.35107 0.85
68.38341 0.85
68.41537 0.85
68.4487 0.85
68.47917 0.85
68.5125 0.85
68.54369 0.85
68.5739 0.85
68.6028 0.85
68.63613 0.85
68.66946 0.85
68.70212 0.85
68.73009 0.85
68.7622 0.85
68.79446 0.85
68.8278 0.85
68.85886 0.85
68.89219 0.85
68.92171 0.85
68.95505 0.85
68.98838 0.85
69.02036 0.85
69.0505 0.85
69.08383 0.85
69.11313 0.85
69.14646 0.85
69.17596 0.85
69.20642 0.85
69.23859 0.85
69.27193 0.85
69.30526 0.85
69.33541 0.85
69.36874 0.85
69.39896 0.85
69.43137 0.85
69.4647 0.85
69.49333 0.85
69.52462 0.85
69.55795 0.85
69.58772 0.85
69.62106 0.85
69.65112 0.85
69.68218 0.85
69.71527 0.85
69.7486 0.85
69.78194 0.85
69.81143 0.85
69.84368 0.85
69.87239 0.85
69.90538 0.85
69.93871 0.85
69.97205 0.85
70.00538 0.85
70.03871 0.85
70.07048 0.85
70.10381 0.85
70.13715 0.85
70.16953 0.85
70.199 0.85
70.2304 0.85
70.26373 0.85
70.29433 0.85
70.32649 0.85
70.35601 0.85
70.38783 0.85
70.42117 0.85
70.45191 0.85
70.48493 0.85
70.51649 0.85
70.54692 0.85
70.58025 0.85
70.61198 0.85
70.64167 0.85
70.675 0.85
70.70388 0.85
70.73722 0.85
70.76636 0.85
70.79969 0.85
70.82978 0.85
70.86311 0.85
70.89645 0.85
70.92657 0.85
70.95644 0.85
70.98761 0.85
71.01871 0.85
71.05204 0.85
71.08418 0.85
71.11473 0.85
71.14664 0.85
71.17991 0.85
71.21324 0.85
71.24353 0.85
71.27679 0.85
71.30603 0.85
71.33542 0.85
71.36875 0.85
71.40208 0.85
71.43542 0.85
71.467 0.85
71.50034 0.85
71.53367 0.85
71.56343 0.85
71.59677 0.85
71.6301 0.85
71.65854 0.85
71.69187 0.85
71.7252 0.85
71.7542 0.85
71.7832 0.85
71.81436 0.85
71.84769 0.85
71.88103 0.85
71.9094 0.85
71.94048 0.85
71.97382 0.85
72.00715 0.85
72.04048 0.85
72.07195 0.85
72.10217 0.85
72.13439 0.85
72.16772 0.85
72.19795 0.85
72.22738 0.85
72.25842 0.85
72.28759 0.85
72.32092 0.85
72.35105 0.85
72.3828 0.85
72.41613 0.85
72.44946 0.85
72.4828 0.85
72.51489 0.85
72.54643 0.85
72.57977 0.85
72.61063 0.85
72.64396 0.85
72.67525 0.85
72.70549 0.85
72.73473 0.85
72.76575 0.85
72.79908 0.85
72.82821 0.85
72.85734 0.85
72.88761 0.85
72.91663 0.85
72.94996 0.85
72.98329 0.85
73.01452 0.85
73.04402 0.85
73.07519 0.85
73.10852 0.85
73.13811 0.85
73.16659 0.85
73.19885 0.85
73.23031 0.85
73.26364 0.85
73.29472 0.85
73.32565 0.85
73.35505 0.85
73.38551 0.85
73.41884 0.85
73.44842 0.85
73.47726 0.85
73.50668 0.85
73.53632 0.85
73.56966 0.85
73.60299 0.85
73.63418 0.85
73.66436 0.85
73.69464 0.85
73.72797 0.85
73.76131 0.85
73.79003 0.85
73.82243 0.85
73.85133 0.85
73.88466 0.85
73.91348 0.85
73.94521 0.85
73.97526 0.85
74.00571 0.85
74.03904 0.85
74.06939 0.85
74.09778 0.85
74.12817 0.85
74.15798 0.85
74.19131 0.85
74.22186 0.85
74.25153 0.85
74.28076 0.85
74.31062 0.85
74.34396 0.85
74.37317 0.85
74.40199 0.85
74.43454 0.85
74.46787 0.85
74.50121 0.85
74.53244 0.85
74.56577 0.85
74.59466 0.85
74.62629 0.85
74.65962 0.85
74.68971 0.85
74.72294 0.85
74.75291 0.85
74.78271 0.85
74.81604 0.85
74.84476 0.85
74.8781 0.85
74.9063 0.85
74.93669 0.85
74.97002 0.85
75.00336 0.85
75.03252 0.85
75.06176 0.85
75.09176 0.85
75.12509 0.85
75.15629 0.85
75.18845 0.85
75.21776 0.85
75.24854 0.85
75.28188 0.85
75.31084 0.85
75.33969 0.85
75.36886 0.85
75.40018 0.85
75.43352 0.85
75.46207 0.85
75.49236 0.85
75.5257 0.85
75.55725 0.65
75.59058 0.65
75.62119 0.65
75.65009 0.65
75.68079 0.65
75.71333 0.65
75.74666 0.65
75.77999 0.2
75.81302 0.2
75.84505 -0.4
75.8771 -1.3
75.91043 -1.3
75.94376 -2.8
75.97326 -4.15
76.00659 -5.85
76.03681 -5.85
76.07014 -7.6
76.09918 -9.35
76.13112 -9.35
76.16052 -11.1
76.19339 -11.1
76.22672 -12
76.25909 -12.45
76.28886 -12.45
76.31936 -12.45
76.35226 -12.45
76.3856 -12.45
76.41399 -12.45
76.44453 -12.45
76.47579 -12.45
76.50581 -12.45
76.53915 -12.45
76.57069 -12.45
76.59944 -12.45
76.63278 -12.45
76.66295 -12.45
76.69628 -12.45
76.72482 -12.45
76.75505 -12.45
76.78686 -12.45
76.8196 -12.45
76.85293 -12.45
76.88414 -12.45
76.91616 -12.45
76.94803 -12.45
76.97842 -12.45
77.01175 -12.45
77.04053 -12.45
77.07273 -12.45
77.10292 -12.45
77.13343 -12.45
77.16676 -12.45
77.198 -12.45
77.22629 -12.45
77.25804 -12.45
77.28808 -12.45
77.32141 -12.45
77.34962 -12.45
77.37923 -12.45
77.40847 -12.45
77.43968 -12.45
77.47301 -12.45
77.50241 -12.45
77.53217 -12.45
77.5655 -12.45
77.59572 -12.45
77.62905 -12.45
77.6621 -12.2
77.69393 -12.2
77.72726 -12.2
77.75786 -12.2
77.79119 -12.2
77.82158 -12.2
77.85291 -12.2
77.88432 -12
77.91721 -12
77.95054 -11.75
77.9799 -11.75
78.01323 -11.75
78.04157 -11.75
78.07241 -11.75
78.10574 -11.75
78.13908 -11.75
78.1684 -11.75
78.20174 -11.75
78.2338 -11.75
78.26713 -11.75
78.29547 -11.75
78.32467 -11.75
78.35724 -11.75
78.38856 -11.75
78.4219 -11.75
78.45358 -11.75
78.4861 -11.75
78.51935 -11.75
78.55268 -11.75
78.58601 -11.75
78.61653 -11.75
78.64558 -11.75
78.67486 -11.75
78.70597 -11.75
78.7393 -11.75
78.77264 -11.75
78.80408 -11.75
78.83741 -11.75
78.86813 -11.75
78.90147 -11.75
78.93481 -11.75
78.96814 -11.75
78.99677 -11.75
79.02914 -11.75
79.06248 -11.75
79.09519 -11.75
79.12524 -11.75
79.15682 -11.75
79.18553 -11.75
79.21886 -11.75
79.24883 -11.75
79.2793 -11.75
79.31106 -11.75
79.34232 -11.75
79.37565 -11.75
79.4072 -11.75
79.43661 -11.75
79.46692 -11.75
79.4994 -11.75
79.53273 -11.75
79.56157 -11.75
79.59281 -11.75
79.62264 -11.75
79.65275 -11.75
79.68608 -11.75
79.71682 -11.75
79.75015 -11.75
79.78349 -11.75
79.81416 -11.75
79.8475 -11.75
79.88026 -11.75
79.91233 -11.75
79.94566 -11.75
79.979 -11.75
80.01233 -11.75
80.04461 -11.75
80.07484 -11.75
80.10506 -11.75
80.1369 -11.75
80.17023 -11.75
80.19917 -11.75
80.2292 -11.75
80.25797 -11.75
80.29131 -11.75
80.32464 -11.75
80.35706 -11.75
80.38629 -11.75
80.41717 -11.75
80.449 -11.75
80.48233 -11.75
80.51237 -11.75
80.54511 -11.75
80.57436 -11.75
80.60678 -11.75
80.64011 -11.75
80.67188 -11.75
80.70137 -11.75
80.73117 -11.75
80.75999 -11.75
80.79332 -11.75
80.82215 -11.75
80.85193 -11.75
80.88055 -11.75
80.91224 -11.75
80.94557 -11.75
80.97565 -11.75
81.00509 -11.75
81.03842 -11.75
81.07175 -11.75
81.10509 -11.75
81.13343 -11.75
81.16676 -11.75
81.19798 -11.75
81.22888 -11.75
81.26221 -11.75
81.29512 -11.75
81.32509 -11.75
81.3557 -11.75
81.38658 -11.75
81.41991 -11.75
81.45325 -11.75
81.48334 -11.75
81.51238 -11.75
81.54335 -11.75
81.57668 -11.75
81.60904 -11.75
81.63736 -11.75
81.66755 -11.75
81.69637 -11.75
81.72971 -11.75
81.76157 -11.75
81.79436 -11.75
81.82302 -11.75
81.85635 -11.75
81.88969 -11.75
81.92303 -11.75
81.95636 -11.75
81.98743 -11.75
82.02076 -11.75
82.05409 -11.75
82.08508 -11.75
82.11841 -11.75
82.15174 -11.75
82.1823 -11.75
82.21564 -11.75
82.24897 -11.75
82.27836 -11.75
82.30826 -11.75
82.33907 -11.75
82.3724 -11.75
82.40058 -11.75
82.43105 -11.75
82.46033 -11.75
82.49286 -11.75
82.52619 -11.75
82.55953 -11.75
82.5882 -11.75
82.62153 -11.75
82.65016 -11.75
82.68349 -11.75
82.71683 -11.75
82.75016 -11.75
82.77951 -11.75
82.81284 -11.75
82.84618 -11.75
82.87683 -11.75
82.91016 -11.75
82.94124 -11.75
82.97114 -11.75
83.00447 -11.75
83.03388 -11.75
83.06509 -11.75
83.09358 -11.75
83.12575 -11.75
83.15908 -11.55
83.18909 -11.55
83.21997 -11.55
83.2521 -11.35
83.28253 -11.35
83.31586 -11.1
83.34472 -11.1
83.37449 -11.1
83.40407 -11.1
83.43509 -11.1
83.46842 -11.1
83.49882 -11.1
83.52802 -11.1
83.55843 -11.1
83.5878 -11.1
83.62113 -11.1
83.65042 -11.1
83.68111 -11.1
83.71444 -11.1
83.74777 -11.1
83.78111 -11.1
83.811 -11.1
83.84099 -11.1
83.87432 -11.1
83.90736 -11.1
83.94069 -11.1
83.97292 -11.1
84.00275 -11.1
84.03128 -11.1
84.06462 -11.1
84.09795 -11.1
84.12943 -11.1
84.15916 -11.1
84.18888 -11.1
84.22221 -11.1
84.25555 -11.1
84.28407 -11.1
84.31667 -11.1
84.34502 -11.1
84.37562 -11.1
84.40895 -11.1
84.44136 -11.1
84.47083 -11.1
84.50417 -11.1
84.5375 -11.1
84.57083 -11.1
84.60088 -11.1
84.63081 -11.1
84.66212 -11.1
84.69476 -11.1
84.72809 -11.1
84.76073 -11.1
84.79031 -11.1
84.82364 -11.1
84.85626 -11.1
84.8896 -11.1
84.91824 -11.1
84.9509 -11.1
84.98109 -11.1
85.01143 -11.1
85.04476 -11.1
85.07611 -11.1
85.10718 -11.1
85.13821 -11.1
85.16683 -11.1
85.20016 -11.1
85.22944 -11.1
85.26277 -11.1
85.2925 -11.1
85.32327 -11.1
85.3566 -11.1
85.38795 -11.1
85.41778 -11.1
85.45111 -11.1
85.48444 -11.1
85.51778 -11.1
85.55111 -11.1
85.58445 -11.1
85.61332 -11.1
85.64666 -11.1
85.67999 -11.1
85.71096 -11.1
85.74039 -11.1
85.76976 -11.1
85.79945 -11.1
85.83278 -11.1
85.86298 -11.1
85.89278 -11.1
85.92152 -11.1
85.95177 -11.1
85.98511 -11.1
86.01511 -11.1
86.04532 -11.1
86.07542 -11.1
86.10664 -11.1
86.13997 -11.1
86.16995 -11.1
86.20061 -11.1
86.23264 -11.1
86.26598 -11.1
86.29931 -11.1
86.32956 -11.1
86.36105 -11.1
86.39385 -11.1
86.42548 -11.1
86.45881 -11.1
86.48783 -11.1
86.52116 -11.1
86.55039 -11.1
86.58022 -11.1
86.61355 -11.1
86.64688 -11.1
86.67955 -11.1
86.71288 -11.1
86.74173 -11.1
86.77506 -11.1
86.80556 -11.1
86.83855 -11.1
86.87069 -11.1
86.90222 -11.1
86.93555 -11.1
86.96823 -11.1
87.00156 -11.1
87.03341 -11.1
87.0638 -11.1
87.09714 -11.1
87.12845 -11.1
87.16171 -11.1
87.19504 -11.1
87.22837 -11.1
87.2617 -11.1
87.29319 -11.1
87.32201 -11.1
87.35225 -11.1
87.38253 -11.1
87.41586 -11.1
87.44589 -11.1
87.47821 -11.1
87.51057 -11.1
87.54053 -11.1
87.57387 -11.1
87.60591 -11.1
87.63841 -11.1
87.66842 -11.1
87.69926 -11.1
87.7326 -11.1
87.76593 -11.1
87.79761 -11.1
87.83094 -11.1
87.8613 -11.1
87.89463 -11.1
87.92439 -11.1
87.9535 -11.1
87.98618 -11.1
88.01952 -11.1
88.05285 -11.1
88.08618 -11.1
88.11623 -11.1
88.1447 -11.1
88.17803 -11.1
88.21136 -11.1
88.24316 -11.1
88.27573 -11.1
88.30635 -11.1
88.33611 -11.1
88.36945 -11.1
88.40278 -11.1
88.43611 -11.1
88.4652 -11.1
88.49492 -11.1
88.52825 -11.1
88.56071 -11.1
88.59098 -11.1
88.62094 -11.1
88.65131 -11.1
88.68465 -11.1
88.71333 -11.1
88.74493 -11.1
88.77548 -11.1
88.80654 -11.1
88.83987 -11.1
88.87143 -11.1
88.90121 -11.1
88.93195 -11.1
88.96201 -11.1
88.99535 -11.1
89.02431 -11.1
89.05457 -11.1
89.08588 -11.1
89.1162 -11.1
89.14954 -11.1
89.1819 -11.1
89.21217 -11.1
89.24171 -11.1
89.27119 -11.1
89.30453 -11.1
89.3362 -11.1
89.36953 -11.1
89.40286 -11.1
89.43502 -11.1
89.46835 -11.1
89.50095 -11.1
89.53098 -11.1
89.56103 -11.1
89.59228 -11.1
89.62561 -10.9
89.65409 -10.9
89.68742 -10.7
89.72076 -10.7
89.75315 -10.7
89.78649 -10.7
89.81982 -10.7
89.85147 -10.7
89.88156 -10.7
89.91175 -10.7
89.94508 -10.45
89.97428 -10.45
90.00761 -10.45
90.0381 -10.45
90.06805 -10.45
90.10139 -10.45
90.13472 -10.45
90.16379 -10.25
90.19565 -10.25
90.22453 -10.25
90.25786 -10.25
90.28638 -10.25
90.31729 -10.25
90.34799 -10.25
90.38132 -10
90.41466 -10
90.44399 -9.8
90.47245 -9.8
90.50495 -9.6
90.53728 -9.35
90.57062 -9.35
90.60019 -9.35
90.63352 -9.15
90.66685 -9.15
90.6993 -9.15
90.73263 -8.95
90.76485 -8.95
90.79384 -8.95
90.82432 -8.7
90.85716 -8.7
90.8905 -8.7
90.91941 -8.5
90.95274 -8.5
90.98568 -8.3
91.01704 -7.85
91.05038 -7.85
91.08017 -7.4
91.11196 -6.95
91.14352 -6.95
91.17661 -6.55
91.20995 -6.3
91.24054 -6.3
91.27233 -6.3
91.30261 -6.3
91.33315 -6.3
91.36648 -6.3
91.39853 -6.3
91.42753 -6.3
91.45834 -6.3
91.48977 -6.3
91.5231 -6.3
91.55165 -6.3
91.58356 -6.3
91.61285 -6.3
91.64259 -6.3
91.67592 -6.3
91.70521 -6.3
91.73637 -6.3
91.76869 -6.3
91.79685 -6.3
91.83018 -6.3
91.86008 -6.3
91.89341 -6.3
91.92674 -6.3
91.95935 -6.3
91.99268 -6.3
92.02317 -6.3
92.05538 -6.3
92.08694 -6.3
92.11574 -6.3
92.14907 -6.3
92.17841 -6.3
92.21175 -6.3
92.24007 -6.3
92.27307 -6.3
92.3064 -6.3
92.33722 -6.3
92.36761 -6.3
92.39745 -6.3
92.42651 -6.3
92.45985 -6.3
92.49318 -6.3
92.52651 -6.3
92.55767 -6.3
92.58848 -6.3
92.62181 -6.3
92.65199 -6.3
92.68162 -6.3
92.71204 -6.3
92.74159 -6.3
92.77493 -6.3
92.80415 -6.3
92.83591 -6.3
92.86467 -6.3
92.89661 -6.3
92.92995 -6.3
92.95855 -6.3
92.9866 -6.3
93.01992 -6.3
93.04988 -6.3
93.08321 -6.3
93.11294 -6.3
93.14264 -6.3
93.17159 -6.3
93.20492 -6.3
93.23825 -6.3
93.26881 -6.3
93.29847 -6.3
93.3318 -6.3
93.36514 -6.3
93.39847 -6.3
93.42721 -6.3
93.46054 -6.3
93.49228 -6.3
93.52431 -6.3
93.55764 -6.3
93.59074 -6.3
93.62104 -6.3
93.6534 -6.3
93.68264 -6.3
93.71597 -6.3
93.7458 -6.3
93.77509 -6.3
93.80714 -6.3
93.83749 -6.3
93.87083 -6.3
93.90295 -6.3
93.93238 -6.3
93.96564 -6.3
93.99542 -6.3
94.02876 -6.3
94.05832 -6.3
94.08916 -6.3
94.11813 -6.3
94.15139 -6.3
94.18472 -6.3
94.21402 -6.3
94.24735 -6.3
94.27797 -6.3
94.30824 -6.3
94.34158 -6.3
94.37071 -6.3
94.40232 -6.3
94.43051 -6.3
94.46354 -6.3
94.49687 -6.3
94.52728 -6.3
94.55788 -6.3
94.58794 -6.3
94.61777 -6.3
94.65111 -6.3
94.6823 -6.3
94.71563 -6.3
94.74444 -6.3
94.77643 -6.3
94.80976 -6.3
94.84138 -6.3
94.87132 -6.3
94.90257 -6.3
94.93119 -6.3
94.96452 -6.3
94.99786 -6.3
95.03119 -6.3
95.06009 -6.3
95.09093 -6.3
95.12427 -6.3
95.15417 -6.3
95.18562 -6.1
95.21764 -6.1
95.2479 -5.85
95.28123 -5.65
95.31355 -5.2
95.34688 -5.2
95.37578 -5
95.40833 -4.35
95.44166 -4.35
95.47213 -3.9
95.50136 -3.9
95.53469 -3.25
95.56802 -2.8
95.60136 -1.7
95.63412 -1.7
95.66453 -0.85
95.69786 0.2
95.72882 0.2
95.76215 1.05
95.79254 1.3
95.8246 1.3
95.85532 1.3
95.88865 1.3
95.92198 1.3
95.95432 1.3
95.98396 1.3
96.01346 1.3
96.04353 1.3
96.07687 1.3
96.10603 1.3
96.13905 1.3
96.17127 1.3
96.20427 1.3
96.2376 1.3
96.27061 1.3
96.30394 1.5
96.33315 1.7
96.36293 1.7
96.39626 1.95
96.4296 2.15
96.46201 2.15
96.49224 2.4
96.52557 2.6
96.55891 2.6
96.5873 2.6
96.61873 2.8
96.65206 2.8
96.68193 2.8
96.71526 2.8
96.7486 2.8
96.78194 2.8
96.81527 2.8
96.8486 2.8
96.88194 2.8
96.91051 2.8
96.94047 2.8
96.97066 2.8
97.00108 2.8
97.03442 2.8
97.06666 2.8
97.09486 2.8
97.12547 2.8
97.155 2.8
97.18833 2.8
97.21819 2.8
97.24857 3.05
97.27824 3.05
97.3106 3.05
97.34393 3.25
97.37337 3.25
97.40363 3.45
97.433 3.45
97.46613 3.45
97.49947 3.45
97.53084 3.45
97.56104 3.45
97.58981 3.45
97.62084 3.45
97.65417 3.45
97.68414 3.7
97.71449 3.7
97.74783 3.9
97.77964 4.15
97.81297 4.15
97.84469 4.55
97.87456 4.8
97.90342 4.8
97.93542 5
97.96875 5.2
97.9996 5.2
98.03294 5.2
98.06384 5.45
98.09548 5.45
98.12881 5.45
98.15995 5.65
98.18921 5.65
98.21809 5.85
98.25142 5.85
98.28475 6.1
98.31476 6.3
98.34574 6.3
98.37757 6.55
98.40904 6.55
98.44238 6.75
98.47235 6.75
98.50568 6.75
98.53608 6.75
98.56941 6.75
98.60275 6.75
98.63523 6.75
98.66553 6.75
98.69749 6.75
98.72624 6.75
98.75957 6.75
98.79291 6.95
98.82336 7.2
98.85365 7.2
98.88446 7.6
98.91779 7.6
98.95014 7.85
98.98145 8.3
99.01478 8.3
99.04378 8.7
99.07711 8.95
99.10659 8.95
99.13992 9.15
99.16867 9.6
99.202 9.6
99.23534 9.8
99.26867 10
99.302 10
99.33175 10
99.36084 10.25
99.39417 10.45
99.42339 10.45
99.45673 10.7
99.48972 10.7
99.52023 10.9
99.55357 11.1
99.58551 11.1
99.61729 11.1
99.64873 11.1
99.68206 11.1
99.71539 11.1
99.74697 11.1
99.77743 11.1
99.81076 11.1
99.84132 11.1
99.87466 11.1
99.90659 11.1
99.93992 11.35
99.97325 11.35
100.0018 11.35
100.0351 11.55
100.066 11.55
100.0962 11.75
100.1274 11.75
100.1603 11.75
100.1937 12
100.2268 12.2
100.2599 12.2
100.2918 12.2
100.3231 12.45
100.3564 12.45
100.3881 12.65
100.4212 12.85
100.4505 12.85
100.4809 13.1
100.5142 13.1
100.5463 13.1
100.5757 13.1
100.6057 13.1
100.6362 13.1
100.6695 13.1
100.698 13.1
100.7313 13.1
100.7605 13.1
100.7939 13.1
100.8272 13.1
100.8605 13.1
100.889 13.1
100.9185 13.1
100.9519 13.1
100.9852 13.1
101.0185 13.1
101.0505 13.1
101.0838 13.1
101.1171 13.1
101.1505 13.1
101.1813 13.1
101.2146 13.1
101.2467 13.1
101.2756 13.1
101.3089 13.1
101.338 13.1
101.3675 13.1
101.3984 13.1
101.431 13.1
101.4644 13.1
101.4953 13.1
101.5287 13.1
101.5609 13.1
101.5943 13.1
101.6276 13.1
101.6567 13.1
101.6901 13.1
101.7193 13.1
101.7502 13.1
101.7835 13.1
101.8139 13.1
101.8457 13.1
101.879 13.1
101.9096 13.1
101.943 13.1
101.9745 13.1
102.0041 13.1
102.036 13.1
102.0693 13.1
102.1026 13.1
102.1329 13.1
102.1626 13.1
102.1936 13.1
102.2269 13.1
102.2602 13.1
102.2898 13.1
102.3231 13.1
102.3542 13.1
102.3875 13.1
102.4208 13.1
102.4542 13.1
102.4862 13.1
102.5195 13.1
102.5487 13.1
102.582 13.1
102.6111 13.1
102.6444 13.1
102.6739 13.1
102.7046 13.1
102.738 12.85
102.7697 12.85
102.7979 12.85
102.8299 12.85
102.8624 12.85
102.8957 12.85
102.9257 12.85
102.9554 12.85
102.9887 12.85
103.022 12.85
103.0554 12.85
103.0843 12.85
103.1129 12.85
103.1462 12.85
103.1746 12.85
103.208 12.65
103.2372 12.65
103.2685 12.2
103.3 12.2
103.3311 11.75
103.3644 11.1
103.3946 11.1
103.4238 10.45
103.4538 9.8
103.4872 9.8
103.5205 9.15
103.5514 8.7
103.5848 8.7
103.6149 8.5
103.6452 8.5
103.6786 8.5
103.7119 8.5
103.7424 8.5
103.7717 8.5
103.8051 8.7
103.8384 8.95
103.8699 8.95
103.9018 8.95
103.9352 8.95
103.9685 8.95
104.0018 8.95
104.0311 8.5
104.0624 8.5
104.0943 7.4
104.1265 6.75
104.1598 6.75
104.1931 5.45
104.2231 4.55
104.2554 4.55
104.2857 3.9
104.319 3.25
104.3517 3.25
104.3832 3.05
104.4161 2.6
104.4494 2.6
104.4827 2.6
104.5142 2.4
104.5475 2.4
104.5774 2.4
104.6074 2.15
104.6407 2.15
104.6717 1.95
104.7003 1.5
104.7337 1.5
104.7621 0.85
104.7954 -0.2
104.8246 -0.2
104.8579 -0.65
104.8865 -1.3
104.9167 -1.3
104.9501 -1.7
104.9829 -2.15
105.0132 -2.15
105.0466 -2.15
105.0799 -2.15
105.1132 -2.15
105.1466 -2.15
105.1799 -2.15
105.2114 -2.15
105.2447 -2.6
105.278 -3.45
105.3113 -3.45
105.3394 -4.35
105.3728 -5.65
105.4038 -5.65
105.4371 -6.95
105.4704 -8.3
105.4997 -8.3
105.533 -9.15
105.5664 -10
105.5997 -10
105.6295 -10
105.6628 -10
105.694 -10
105.7257 -10
105.7591 -10
105.7889 -10
105.8223 -10
105.8518 -10
105.8825 -10
105.9158 -10
105.9455 -10
105.9788 -10
106.0122 -10
106.0412 -10
106.0745 -10
106.1042 -10
106.1359 -10
106.1673 -10
106.1983 -10
106.2316 -10
106.265 -10
106.2944 -10
106.3278 -10
106.359 -10
106.3924 -10
106.4221 -10
106.4534 -10
106.4826 -10
106.5142 -10
106.5475 -10
106.5809 -10
106.6112 -10
106.6443 -10
106.6743 -10
106.7076 -10
106.7364 -10
106.7697 -10
106.8013 -10
106.8326 -10
106.8659 -10
106.8993 -10
106.9301 -10
106.9601 -10
106.9899 -10
107.0233 -10
107.0566 -10
107.0895 -9.6
107.1228 -9.6
107.1562 -9.35
107.1895 -9.35
107.2228 -9.35
107.2522 -9.35
107.2821 -9.35
107.3147 -9.35
107.3481 -9.35
107.381 -9.35
107.414 -9.35
107.4428 -9.35
107.4762 -9.35
107.5095 -9.35
107.5395 -9.35
107.57 -9.35
107.6003 -9.35
107.6293 -9.35
107.6627 -9.35
107.6929 -9.35
107.7231 -9.35
107.7521 -9.15
107.7854 -9.15
107.8188 -9.15
107.8484 -8.95
107.8801 -8.95
107.9134 -8.95
107.9459 -8.95
107.9792 -8.95
108.0098 -8.95
108.0431 -8.7
108.0751 -8.7
108.1084 -8.7
108.1417 -8.7
108.1732 -8.7
108.2016 -8.7
108.2339 -8.7
108.2635 -8.7
108.2968 -8.7
108.3253 -8.7
108.3586 -8.5
108.3878 -8.5
108.4177 -8.5
108.451 -8.05
108.4839 -7.4
108.5146 -7.4
108.5448 -6.75
108.5742 -6.3
108.6076 -6.3
108.6366 -6.3
108.666 -6.3
108.6946 -6.3
108.7246 -6.3
108.7579 -6.3
108.7907 -6.3
108.8191 -6.3
108.8482 -6.3
108.8816 -6.3
108.9149 -6.3
108.9451 -6.3
108.9751 -6.3
109.0034 -6.3
109.0341 -6.3
109.0675 -6.3
109.0982 -6.3
109.1306 -6.3
109.1639 -6.3
109.1968 -6.3
109.2301 -6.3
109.262 -6.3
109.2953 -6.3
109.3235 -6.3
109.3553 -6.3
109.3886 -6.3
109.422 -6.3
109.4517 -6.3
109.4828 -6.3
109.5147 -6.3
109.5481 -6.3
109.5775 -6.3
109.6084 -6.3
109.6402 -6.3
109.6727 -6.3
109.706 -6.3
109.7375 -6.1
109.7683 -6.1
109.8016 -6.1
109.8321 -5.85
109.8654 -5.85
109.8942 -5.65
109.9238 -5.65
109.9519 -5.65
109.9826 -5.65
110.016 -5.65
110.0484 -5.65
110.0788 -5.65
110.1105 -5.65
110.1438 -5.65
110.1772 -5.65
110.2057 -5.65
110.2376 -5.65
110.2663 -5.65
110.2996 -5.65
110.3329 -5.65
110.3655 -5.45
110.3979 -5.45
110.4313 -5.2
110.4608 -5.2
110.4941 -5
110.5221 -4.8
110.5554 -4.55
110.5852 -4.55
110.6166 -4.55
110.65 -4.35
110.6833 -4.35
110.7154 -4.35
110.7483 -4.35
110.7816 -4.35
110.815 -4.35
110.8438 -4.35
110.8744 -4.35
110.9039 -4.35
110.9364 -4.35
110.9697 -4.35
111.0001 -4.35
111.029 -4.35
111.0602 -4.35
111.0935 -4.35
111.1269 -4.35
111.1561 -4.35
111.1875 -4.35
111.2197 -4.35
111.2524 -4.35
111.2858 -4.35
111.3162 -4.35
111.3471 -4.35
111.3767 -4.35
111.4063 -4.35
111.4396 -4.15
111.4695 -4.15
111.5029 -4.15
111.534 -4.15
111.5657 -4.15
111.599 -4.15
111.6308 -4.15
111.6626 -4.15
111.6947 -4.15
111.728 -4.15
111.7614 -4.15
111.7947 -4.15
111.8274 -4.15
111.8607 -4.15
111.8917 -4.15
111.925 -4.15
111.9559 -4.15
111.9892 -4.15
112.0225 -4.15
112.0515 -4.15
112.0848 -4.15
112.1181 -4.15
112.1492 -4.15
112.1793 -4.15
112.2126 -4.15
112.2459 -4.15
112.2775 -4.15
112.3097 -4.15
112.3416 -4.15
112.3712 -4.15
112.4046 -4.15
112.434 -4.15
112.4648 -4.15
112.4951 -4.15
112.5264 -4.15
112.5598 -4.15
112.5894 -4.15
112.6201 -4.15
112.6504 -4.15
112.6797 -4.15
112.713 -4.15
112.7422 -4.15
112.7745 -4.15
112.8061 -4.15
112.8386 -4.15
112.872 -4.15
112.9025 -4.15
112.9342 -4.15
112.9675 -4.15
112.9962 -4.15
113.0295 -4.15
113.058 -4.15
113.0905 -4.15
113.1222 -4.15
113.1532 -3.9
113.1865 -3.9
113.2198 -3.7
113.2529 -3.25
113.2863 -3.25
113.3181 -2.8
113.3514 -2.4
113.3847 -1.95
113.4181 -1.95
113.4469 -1.3
113.4802 -0.65
113.5135 -0.65
113.5429 0.2
113.5712 1.05
113.6045 1.05
113.6374 1.95
113.6707 2.6
113.7007 2.6
113.734 3.45
113.7672 4.35
113.8006 4.35
113.8339 5
113.8651 5.65
113.8958 5.65
113.9254 6.3
113.9548 6.3
113.9882 7.2
114.0181 7.4
114.0496 7.85
114.0794 7.85
114.1128 8.05
114.1461 8.05
114.1784 8.05
114.2101 8.05
114.2434 8.05
114.2756 8.05
114.309 8.5
114.3392 9.8
114.371 9.8
114.401 11.35
114.4323 11.35
114.4656 13.3
114.4946 14.15
114.528 14.15
114.5588 15.5
114.5881 16.35
114.6214 16.35
114.6503 17.25
114.6805 18.55
114.7089 18.55
114.7422 19.85
114.7755 21.4
114.8089 21.4
114.8375 22.9
114.8708 24.2
114.9005 24.2
114.9339 26.4
114.9672 28.35
114.9981 28.35
115.0271 29.9
115.0589 29.9
115.0922 31.45
115.1255 32.95
115.1562 34.05
115.1864 34.05
115.2168 35.6
115.2501 35.6
115.2809 36.65
115.3117 37.55
115.3421 37.55
115.3755 38.85
115.4088 39.75
115.4388 39.75
115.4677 40.15
115.4991 40.15
115.5304 40.4
115.5638 40.4
115.5967 40.4
115.6274 40.4
115.6562 40.4
115.6895 40.4
115.7229 40.4
115.7549 40.8
115.7879 40.8
115.8212 41.7
115.8509 43
115.8843 44.3
115.913 44.3
115.9464 45.4
115.9776 46.7
116.0083 46.7
116.0417 47.8
116.0716 47.8
116.1 49.35
116.1319 50.45
116.1609 50.45
116.1942 51.3
116.2232 51.95
116.2531 51.95
116.2826 52.4
116.3137 52.4
116.347 53.95
116.3783 55.45
116.4069 55.45
116.4391 57.2
116.4687 59.4
116.502 59.4
116.5316 61.15
116.562 63.1
116.5925 63.1
116.623 64.4
116.6563 65.75
116.6865 65.75
116.7161 66.8
116.7462 66.8
116.7763 67.5
116.8097 68.15
116.8392 68.15
116.8725 68.55
116.9037 68.55
116.937 68.55
116.9703 68.55
117.0029 68.55
117.0315 68.55
117.0628 68.55
117.0961 68.55
117.1295 68.55
117.1576 68.55
117.1873 68.55
117.2183 68.55
117.2488 68.55
117.2821 68.55
117.3116 68.55
117.341 68.55
117.371 68.55
117.4008 68.55
117.4341 68.8
117.4635 69.2
117.4947 69.2
117.5265 69.65
117.5572 69.65
117.5905 70.55
117.6238 71.2
117.6572 72.05
117.6905 72.05
117.7197 72.95
117.753 74.25
117.7826 74.25
117.8151 75.35
117.8447 75.35
117.8767 76.2
117.9101 76.85
117.9403 76.85
117.9688 77.5
118.0007 77.75
118.034 77.75
118.0673 77.75
118.0979 77.75
118.1282 77.75
118.1593 77.75
118.1923 77.75
118.2257 77.75
118.2546 77.75
118.2833 77.75
118.3135 77.75
118.3431 77.75
118.3764 77.75
118.4051 77.75
118.4384 78.2
118.4674 78.2
118.4974 78.4
118.5307 78.6
118.5609 78.6
118.5926 79.05
118.6244 79.05
118.6553 79.05
118.6886 79.05
118.7201 79.05
118.7505 79.05
118.7794 79.05
118.8102 79.05
118.8436 79.05
118.8736 79.05
118.9032 79.05
118.9365 79.05
118.9654 79.05
118.9987 79.05
119.0294 79.05
119.0613 79.05
119.093 79.05
119.1264 79.05
119.1597 79.05
119.1897 79.05
119.2205 79.05
119.2537 79.05
119.2835 79.05
119.3169 79.05
119.3502 79.05
119.3797 79.05
119.4128 79.05
119.4438 79.05
119.4771 79.25
119.5067 79.7
119.5351 79.7
119.5648 80.35
119.5944 80.35
119.6277 81.45
119.6611 82.55
119.6933 83.4
119.7217 83.4
119.7539 84.3
119.7872 84.3
119.8199 84.95
119.8487 85.6
119.8782 85.6
119.9089 86.25
119.9422 86.9
119.9756 87.55
120.0059 87.55
120.0391 88.25
120.069 88.25
120.1023 88.65
120.1349 89.3
120.1682 89.3
120.2015 90.2
120.2318 90.85
120.2652 91.5
120.2935 91.5
120.3263 92.15
120.3547 92.15
120.388 92.8
120.4214 93.05
120.4512 93.05
120.4791 93.45
120.5125 93.45
120.5415 93.45
120.5748 93.7
120.6043 93.7
120.637 93.7
120.6655 94.15
120.698 94.15
120.7313 94.55
120.7647 95.2
120.7928 95.2
120.8236 95.85
120.8531 95.85
120.8865 96.55
120.9198 97.2
120.9514 97.85
120.981 97.85
121.0143 98.3
121.0477 98.5
121.077 98.5
121.1058 99.15
121.1391 99.35
121.1724 99.35
121.2058 99.6
121.236 99.6
121.2676 99.6
121.2982 99.6
121.3295 99.6
121.3629 99.6
121.3933 99.6
121.4217 99.6
121.4549 99.6
121.484 99.6
121.5173 99.6
121.5473 99.6
121.5781 99.6
121.6068 99.6
121.6379 99.6
121.6713 99.6
121.7046 99.6
121.7379 99.6
121.7713 99.6
121.8007 99.6
121.834 99.6
121.8674 99.6
121.9007 99.6
121.9327 99.6
121.9646 99.6
121.9979 99.6
122.0312 99.6
122.0631 99.6
122.0964 99.6
122.1297 99.6
122.1631 99.6
122.1923 99.6
122.2236 99.6
122.2516 99.6
122.2849 99.6
122.3182 99.6
122.3512 99.6
122.3828 99.6
122.4125 99.6
122.4423 99.6
122.4756 99.6
122.5089 99.6
122.541 99.6
122.5699 99.6
122.6016 99.6
122.635 99.6
122.6656 99.6
122.694 99.6
122.7273 99.6
122.7575 99.6
122.7909 99.6
122.82 99.6
122.8501 99.6
122.8814 99.6
122.912 99.6
122.9454 99.6
122.9751 99.6
123.0048 99.6
123.0381 99.6
123.0696 99.6
123.1029 99.6
123.1339 99.6
123.1645 99.6
123.1954 99.6
123.2269 99.6
123.2602 99.6
123.29 99.6
123.318 99.6
123.3484 99.6
123.3809 99.6
123.4143 99.6
123.443 99.6
123.4724 99.6
123.5027 99.6
123.536 99.6
123.5693 99.6
123.6027 99.6
123.6337 99.6
123.6645 99.6
123.6961 99.6
123.7294 99.6
123.76 99.6
123.7933 99.6
123.8237 99.35
123.8546 99.35
123.8879 99.15
123.9213 98.95
123.9515 98.95
123.9837 98.5
124.013 98.5
124.0464 97.85
124.0764 97.2
124.107 96.3
124.1372 96.3
124.1694 95.2
124.2027 95.2
124.2329 93.45
124.2648 91.7
124.2958 91.7
124.3255 90.4
124.3589 89.3
124.3893 89.3
124.419 88.45
124.4488 88.45
124.4809 87.35
124.5142 86.9
124.544 86.9
124.5739 85.8
124.6072 84.75
124.6376 84.75
124.671 83.65
124.7013 82.35
124.7327 81.25
124.7623 81.25
124.7927 80.6
124.826 80.6
124.8562 80.15
124.8877 79.05
124.9177 79.05
124.9511 78.4
124.9844 76.85
125.0177 76.85
125.0477 75.35
125.0766 73.35
125.1067 73.35
125.1401 71.85
125.1734 67.7
125.2067 67.7
125.2369 62.9
125.267 57.85
125.3003 57.85
125.3301 53.3
125.3634 47.15
125.3921 47.15
125.4254 41.9
125.4588 38.2
125.4888 38.2
125.5187 34.7
125.5486 31.45
125.5773 31.45
125.6106 29.25
125.6438 26.65
125.6767 26.65
125.7061 24.65
125.7394 24.65
125.7728 22.25
125.8027 19.85
125.8344 17.9
125.8677 17.9
125.8973 16.35
125.9306 16.35
125.9624 15.5
125.9925 14.6
126.0231 14.6
126.0535 12.45
126.0868 10.25
126.1201 10.25
126.1535 8.95
126.1849 7.85
126.2182 7.85
126.2515 6.95
126.2827 6.1
126.3136 4.8
126.3469 4.8
126.3786 3.25
126.4119 1.7
126.4428 1.7
126.4726 -0.65
126.5026 -0.65
126.5323 -2.15
126.5656 -3.7
126.5955 -3.7
126.6288 -5
126.6578 -5.85
126.6906 -5.85
126.7239 -6.75
126.7545 -6.95
126.7829 -6.95
126.8139 -6.95
126.8431 -6.95
126.8765 -6.95
126.9098 -6.95
126.9402 -6.95
126.9699 -6.95
127 -6.95
127.0334 -6.95
127.065 -6.95
127.0954 -6.95
127.1288 -6.95
127.1574 -6.95
127.1908 -6.95
127.2211 -6.95
127.2537 -6.95
127.2835 -6.95
127.3168 -6.95
127.3501 -6.95
127.3808 -6.95
127.4095 -6.95
127.4428 -6.95
127.476 -6.95
127.5094 -6.95
127.5427 -6.95
127.5742 -6.95
127.6045 -6.95
127.6356 -6.95
127.669 -6.95
127.7023 -6.95
127.7325 -6.95
127.763 -6.95
127.7938 -6.95
127.8271 -6.95
127.8604 -6.95
127.8912 -6.95
127.9213 -6.95
127.9528 -6.95
127.9861 -6.95
128.0187 -6.95
128.052 -6.95
128.0854 -6.95
128.1135 -6.95
128.1469 -6.95
128.1752 -6.95
128.2063 -6.95
128.2386 -6.95
128.2694 -6.95
128.3027 -6.95
128.3339 -6.95
128.364 -6.95
128.3967 -6.95
128.4259 -6.95
128.4592 -6.95
128.4926 -6.95
128.5259 -6.95
128.5586 -6.95
128.5919 -6.95
128.6252 -6.95
128.6577 -6.95
128.687 -6.95
128.7172 -6.95
128.7474 -6.95
128.7807 -6.95
128.8125 -6.95
128.8431 -6.95
128.8739 -6.95
128.9069 -6.95
128.9402 -6.95
128.9736 -6.95
129.0069 -6.95
129.0403 -6.95
129.0701 -6.95
129.1034 -6.95
129.1327 -6.95
129.1631 -6.95
129.1965 -6.95
129.2298 -6.95
129.2631 -6.95
129.2947 -6.95
129.328 -6.95
129.3605 -6.95
129.3899 -6.95
129.4232 -6.95
129.4542 -6.95
129.4875 -6.95
129.5209 -6.95
129.5521 -6.95
129.5854 -6.95
129.6168 -6.95
129.6477 -6.95
129.681 -6.95
129.7095 -6.95
129.7428 -6.95
129.7721 -6.95
129.8038 -6.95
129.8349 -6.95
129.8679 -6.95
129.9012 -6.95
129.9345 -6.95
129.9678 -6.95
130.0004 -6.95
130.0323 -6.95
130.0657 -6.95
130.0979 -6.95
130.1304 -6.95
130.1605 -6.95
130.1929 -6.95
130.2263 -6.95
130.2596 -6.95
130.2895 -6.95
130.3228 -6.95
130.3533 -6.95
130.3866 -6.95
130.4195 -6.95
130.4528 -6.95
130.4842 -6.95
130.5175 -6.95
130.5509 -6.95
130.5842 -6.95
130.6134 -6.95
130.6457 -6.95
130.679 -6.95
130.7123 -6.95
130.741 -6.95
130.7743 -6.95
130.8026 -6.95
130.8337 -6.95
130.8671 -6.95
130.8978 -6.95
130.9312 -6.95
130.9641 -6.95
130.9975 -6.95
131.0308 -6.95
